# wavelength(A)     flux(erg / s cm2 A)
       5950.0000   4.3298380e-15
       5951.3000   4.2629417e-15
       5952.6000   4.2103893e-15
       5953.9000   4.1391992e-15
       5955.2000   4.3431550e-15
       5956.5000   4.5954940e-15
       5957.8000   4.4381477e-15
       5959.1000   4.3145297e-15
       5960.4000   4.3036396e-15
       5961.7000   4.3530495e-15
       5963.0000   4.2112294e-15
       5964.3000   4.1230819e-15
       5965.6000   4.1610416e-15
       5966.9000   3.9838131e-15
       5968.2000   4.0987814e-15
       5969.5000   4.1563744e-15
       5970.8000   4.0905983e-15
       5972.1000   4.2101715e-15
       5973.4000   4.1771589e-15
       5974.7000   4.0970701e-15
       5976.0000   4.2462643e-15
       5977.3000   4.1824173e-15
       5978.6000   4.0866156e-15
       5979.9000   4.0356500e-15
       5981.2000   4.2530162e-15
       5982.5000   4.1723362e-15
       5983.8000   4.1276246e-15
       5985.1000   4.2834773e-15
       5986.4000   4.2121939e-15
       5987.7000   4.0538831e-15
       5989.0000   4.3134095e-15
       5990.3000   4.1205616e-15
       5991.6000   4.1084580e-15
       5992.9000   4.1784035e-15
       5994.2000   4.2147764e-15
       5995.5000   4.1456088e-15
       5996.8000   4.1638730e-15
       5998.1000   4.1602637e-15
       5999.4000   4.0289292e-15
       6000.7000   3.9417152e-15
       6002.0000   4.0049088e-15
       6003.3000   4.0605727e-15
       6004.6000   3.9783370e-15
       6005.9000   3.9491515e-15
       6007.2000   4.0187237e-15
       6008.5000   4.0157678e-15
       6009.8000   4.0987814e-15
       6011.1000   4.2532029e-15
       6012.4000   4.1628774e-15
       6013.7000   3.9785548e-15
       6015.0000   3.8845889e-15
       6016.3000   4.0153633e-15
       6017.6000   4.1399771e-15
       6018.9000   4.1486891e-15
       6020.2000   4.0835353e-15
       6021.5000   3.9259401e-15
       6022.8000   3.9554678e-15
       6024.1000   4.0846865e-15
       6025.4000   4.0341876e-15
       6026.7000   3.9218641e-15
       6028.0000   4.1269401e-15
       6029.3000   4.0677913e-15
       6030.6000   3.8297028e-15
       6031.9000   3.8603506e-15
       6033.2000   3.9429597e-15
       6034.5000   3.8581726e-15
       6035.8000   3.8891938e-15
       6037.1000   3.8164169e-15
       6038.4000   3.7872937e-15
       6039.7000   4.1002127e-15
       6041.0000   3.8881048e-15
       6042.3000   3.7489917e-15
       6043.6000   3.7837777e-15
       6044.9000   3.8945144e-15
       6046.2000   3.8095406e-15
       6047.5000   3.7782082e-15
       6048.8000   3.8793927e-15
       6050.1000   4.0536653e-15
       6051.4000   4.0423396e-15
       6052.7000   3.7996150e-15
       6054.0000   3.7594150e-15
       6055.3000   3.8378548e-15
       6056.6000   3.7459113e-15
       6057.9000   3.8354279e-15
       6059.2000   3.8945144e-15
       6060.5000   3.8892872e-15
       6061.8000   3.8580481e-15
       6063.1000   3.7161969e-15
       6064.4000   3.6558347e-15
       6065.7000   3.8494294e-15
       6067.0000   3.8559946e-15
       6068.3000   3.7929876e-15
       6069.6000   3.7592906e-15
       6070.9000   3.7933299e-15
       6072.2000   3.8731387e-15
       6073.5000   3.9649266e-15
       6074.8000   3.8475625e-15
       6076.1000   3.7653890e-15
       6077.4000   3.8283649e-15
       6078.7000   3.8753167e-15
       6080.0000   3.9165124e-15
       6081.3000   3.9873913e-15
       6082.6000   3.9328475e-15
       6083.9000   3.9283981e-15
       6085.2000   3.9539432e-15
       6086.5000   3.9894760e-15
       6087.8000   4.0160167e-15
       6089.1000   4.0593281e-15
       6090.4000   4.0376413e-15
       6091.7000   3.7886005e-15
       6093.0000   3.7680960e-15
       6094.3000   3.9594505e-15
       6095.6000   4.0441754e-15
       6096.9000   3.9769991e-15
       6098.2000   3.9873913e-15
       6099.5000   4.0763167e-15
       6100.8000   4.0629374e-15
       6102.1000   4.0447665e-15
       6103.4000   4.1649309e-15
       6104.7000   4.1245754e-15
       6106.0000   3.8532565e-15
       6107.3000   3.8805440e-15
       6108.6000   4.1164233e-15
       6109.9000   4.2395436e-15
       6111.2000   4.1400704e-15
       6112.5000   4.1471334e-15
       6113.8000   4.1419995e-15
       6115.1000   4.1683535e-15
       6116.4000   4.2679201e-15
       6117.7000   4.3821104e-15
       6119.0000   4.3518982e-15
       6120.3000   4.2107315e-15
       6121.6000   4.2340052e-15
       6122.9000   4.4271021e-15
       6124.2000   4.5214414e-15
       6125.5000   4.5275087e-15
       6126.8000   4.4095535e-15
       6128.1000   4.3512448e-15
       6129.4000   4.3766654e-15
       6130.7000   4.3447419e-15
       6132.0000   4.4593679e-15
       6133.3000   4.4623860e-15
       6134.6000   4.4254530e-15
       6135.9000   4.4092112e-15
       6137.2000   4.4617948e-15
       6138.5000   4.5223126e-15
       6139.8000   4.5563519e-15
       6141.1000   4.5028660e-15
       6142.4000   4.3379278e-15
       6143.7000   4.4175499e-15
       6145.0000   4.6145361e-15
       6146.3000   4.7119869e-15
       6147.6000   4.6592166e-15
       6148.9000   4.8025924e-15
       6150.2000   4.8713245e-15
       6151.5000   4.7060751e-15
       6152.8000   4.7164985e-15
       6154.1000   4.7260506e-15
       6155.4000   4.7181475e-15
       6156.7000   4.5805901e-15
       6158.0000   4.6845750e-15
       6159.3000   4.8777652e-15
       6160.6000   4.9673751e-15
       6161.9000   4.7819324e-15
       6163.2000   4.7293799e-15
       6164.5000   4.7860706e-15
       6165.8000   4.9065772e-15
       6167.1000   4.9358249e-15
       6168.4000   4.8406144e-15
       6169.7000   4.8632347e-15
       6171.0000   4.9009455e-15
       6172.3000   4.8907710e-15
       6173.6000   4.8960294e-15
       6174.9000   4.8076641e-15
       6176.2000   4.8515978e-15
       6177.5000   4.9091286e-15
       6178.8000   4.9056127e-15
       6180.1000   4.9445992e-15
       6181.4000   4.8083486e-15
       6182.7000   4.6268575e-15
       6184.0000   4.6987321e-15
       6185.3000   4.7770474e-15
       6186.6000   4.9609032e-15
       6187.9000   4.8501977e-15
       6189.2000   4.7719446e-15
       6190.5000   4.7343582e-15
       6191.8000   4.8291954e-15
       6193.1000   4.6846683e-15
       6194.4000   4.8255861e-15
       6195.7000   4.8681819e-15
       6197.0000   4.9840213e-15
       6198.3000   4.9386875e-15
       6199.6000   4.9859504e-15
       6200.9000   4.9029680e-15
       6202.2000   4.7641660e-15
       6203.5000   4.8346093e-15
       6204.8000   4.7554228e-15
       6206.1000   4.8196432e-15
       6207.4000   4.8104022e-15
       6208.7000   4.8135447e-15
       6210.0000   4.9962494e-15
       6211.3000   4.6399567e-15
       6212.6000   4.7444705e-15
       6213.9000   4.8741559e-15
       6215.2000   4.7991076e-15
       6216.5000   4.6055440e-15
       6217.8000   4.6327381e-15
       6219.1000   4.7667485e-15
       6220.4000   4.7860084e-15
       6221.7000   4.6199189e-15
       6223.0000   4.6300312e-15
       6224.3000   4.5786610e-15
       6225.6000   4.7220680e-15
       6226.9000   4.8370673e-15
       6228.2000   4.7084398e-15
       6229.5000   4.6043928e-15
       6230.8000   4.6245550e-15
       6232.1000   4.7046127e-15
       6233.4000   4.7266418e-15
       6234.7000   4.6308712e-15
       6236.0000   4.6007524e-15
       6237.3000   4.6766719e-15
       6238.6000   4.7478931e-15
       6239.9000   4.7450305e-15
       6241.2000   4.7230636e-15
       6242.5000   4.8120201e-15
       6243.8000   4.9362605e-15
       6245.1000   4.9073551e-15
       6246.4000   4.8145093e-15
       6247.7000   4.7924180e-15
       6249.0000   4.7415146e-15
       6250.3000   4.7663129e-15
       6251.6000   4.8024369e-15
       6252.9000   4.7531825e-15
       6254.2000   4.6719424e-15
       6255.5000   4.7687398e-15
       6256.8000   4.8992964e-15
       6258.1000   4.9692108e-15
       6259.4000   4.9871950e-15
       6260.7000   4.9765539e-15
       6262.0000   4.8125491e-15
       6263.3000   4.7334870e-15
       6264.6000   4.7081287e-15
       6265.9000   4.8827124e-15
       6267.2000   4.8534958e-15
       6268.5000   4.7625791e-15
       6269.8000   4.7832703e-15
       6271.1000   4.9399009e-15
       6272.4000   4.7585965e-15
       6273.7000   4.4455219e-15
       6275.0000   4.6301867e-15
       6276.3000   4.7472396e-15
       6277.6000   4.6133538e-15
       6278.9000   4.5494445e-15
       6280.2000   4.6124825e-15
       6281.5000   4.6876864e-15
       6282.8000   4.7777008e-15
       6284.1000   4.7831769e-15
       6285.4000   4.6114558e-15
       6286.7000   4.6605856e-15
       6288.0000   4.5854751e-15
       6289.3000   4.7160006e-15
       6290.6000   4.8118334e-15
       6291.9000   4.8358539e-15
       6293.2000   4.7720691e-15
       6294.5000   4.7209167e-15
       6295.8000   4.8523757e-15
       6297.1000   4.9882218e-15
       6298.4000   4.7488887e-15
       6299.7000   4.6179898e-15
       6301.0000   4.8101533e-15
       6302.3000   4.8525624e-15
       6303.6000   4.9284819e-15
       6304.9000   4.8636081e-15
       6306.2000   4.7795677e-15
       6307.5000   5.0553048e-15
       6308.8000   5.0820633e-15
       6310.1000   4.9010388e-15
       6311.4000   4.9273618e-15
       6312.7000   4.9284197e-15
       6314.0000   5.1037501e-15
       6315.3000   5.1617165e-15
       6316.6000   5.0584473e-15
       6317.9000   4.8806899e-15
       6319.2000   4.8467751e-15
       6320.5000   4.8467751e-15
       6321.8000   4.9787319e-15
       6323.1000   5.0600031e-15
       6324.4000   5.1437945e-15
       6325.7000   5.1662592e-15
       6327.0000   5.0205498e-15
       6328.3000   5.0641724e-15
       6329.6000   5.3240411e-15
       6330.9000   5.3267481e-15
       6332.2000   5.2044679e-15
       6333.5000   5.1424255e-15
       6334.8000   5.1068927e-15
       6336.1000   5.1560537e-15
       6337.4000   5.2488372e-15
       6338.7000   5.2979671e-15
       6340.0000   5.3235433e-15
       6341.3000   5.2955713e-15
       6342.6000   5.1956003e-15
       6343.9000   5.4031032e-15
       6345.2000   5.5252589e-15
       6346.5000   5.3328154e-15
       6347.8000   5.3111597e-15
       6349.1000   5.3038166e-15
       6350.4000   5.3137111e-15
       6351.7000   5.6150866e-15
       6353.0000   5.4156734e-15
       6354.3000   5.3318197e-15
       6355.6000   5.2981849e-15
       6356.9000   5.1511065e-15
       6358.2000   5.1528489e-15
       6359.5000   5.3170092e-15
       6360.8000   5.2040012e-15
       6362.1000   5.4453256e-15
       6363.4000   5.2437656e-15
       6364.7000   5.1264015e-15
       6366.0000   5.1913376e-15
       6367.3000   5.2440145e-15
       6368.6000   5.2479972e-15
       6369.9000   5.2329377e-15
       6371.2000   5.2767159e-15
       6372.5000   5.2482150e-15
       6373.8000   5.1140490e-15
       6375.1000   5.1324377e-15
       6376.4000   5.1601608e-15
       6377.7000   5.2105041e-15
       6379.0000   5.2504552e-15
       6380.3000   5.1633345e-15
       6381.6000   5.2194962e-15
       6382.9000   5.2806363e-15
       6384.2000   5.2052458e-15
       6385.5000   5.1533467e-15
       6386.8000   5.2030677e-15
       6388.1000   5.2453213e-15
       6389.4000   5.1711753e-15
       6390.7000   5.1657303e-15
       6392.0000   5.1194630e-15
       6393.3000   5.1101286e-15
       6394.6000   5.3209608e-15
       6395.9000   5.3947956e-15
       6397.2000   5.2028188e-15
       6398.5000   5.2236656e-15
       6399.8000   5.2382272e-15
       6401.1000   5.2856146e-15
       6402.4000   5.3434566e-15
       6403.7000   5.3125598e-15
       6405.0000   5.1736334e-15
       6406.3000   5.1495818e-15
       6407.6000   5.3180982e-15
       6408.9000   5.1932356e-15
       6410.2000   5.0912421e-15
       6411.5000   5.1466260e-15
       6412.8000   5.0982428e-15
       6414.1000   5.0900597e-15
       6415.4000   5.1670060e-15
       6416.7000   5.1158848e-15
       6418.0000   5.2695284e-15
       6419.3000   5.2288306e-15
       6420.6000   5.2857391e-15
       6421.9000   5.2663859e-15
       6423.2000   5.3038166e-15
       6424.5000   5.3440789e-15
       6425.8000   5.1989606e-15
       6427.1000   5.0643591e-15
       6428.4000   5.3184094e-15
       6429.7000   5.2626832e-15
       6431.0000   5.2099129e-15
       6432.3000   5.1940134e-15
       6433.6000   5.4379515e-15
       6434.9000   5.5591737e-15
       6436.2000   5.3467236e-15
       6437.5000   5.1708642e-15
       6438.8000   5.3404385e-15
       6440.1000   5.3903462e-15
       6441.4000   5.1993029e-15
       6442.7000   5.1139246e-15
       6444.0000   5.3215831e-15
       6445.3000   5.2914953e-15
       6446.6000   5.2524154e-15
       6447.9000   5.1933600e-15
       6449.2000   5.2125266e-15
       6450.5000   5.4889793e-15
       6451.8000   5.3252546e-15
       6453.1000   5.3203696e-15
       6454.4000   5.1135823e-15
       6455.7000   5.1424255e-15
       6457.0000   5.3907818e-15
       6458.3000   5.3955734e-15
       6459.6000   5.2158247e-15
       6460.9000   5.1141424e-15
       6462.2000   5.1974360e-15
       6463.5000   5.1138001e-15
       6464.8000   5.3162936e-15
       6466.1000   5.4786493e-15
       6467.4000   5.4354001e-15
       6468.7000   5.3799851e-15
       6470.0000   5.2694040e-15
       6471.3000   5.4333154e-15
       6472.6000   5.4845610e-15
       6473.9000   5.2740089e-15
       6475.2000   5.3073015e-15
       6476.5000   5.4366758e-15
       6477.8000   5.3942044e-15
       6479.1000   5.2319109e-15
       6480.4000   5.1335579e-15
       6481.7000   5.2099752e-15
       6483.0000   5.3259391e-15
       6484.3000   5.4739510e-15
       6485.6000   5.4773425e-15
       6486.9000   5.2740400e-15
       6488.2000   5.1606275e-15
       6489.5000   5.1115288e-15
       6490.8000   5.0475884e-15
       6492.1000   5.0751558e-15
       6493.4000   5.1299175e-15
       6494.7000   5.1448835e-15
       6496.0000   5.1536267e-15
       6497.3000   5.2217676e-15
       6498.6000   5.2081083e-15
       6499.9000   5.0877884e-15
       6501.2000   5.0236924e-15
       6502.5000   5.0967182e-15
       6503.8000   5.0138602e-15
       6505.1000   4.9885018e-15
       6506.4000   4.9329935e-15
       6507.7000   4.8718223e-15
       6509.0000   5.0172517e-15
       6510.3000   5.0635501e-15
       6511.6000   4.9738469e-15
       6512.9000   5.0980562e-15
       6514.2000   5.0296975e-15
       6515.5000   4.7273575e-15
       6516.8000   5.0090063e-15
       6518.1000   5.2453835e-15
       6519.4000   5.0304442e-15
       6520.7000   4.9827145e-15
       6522.0000   5.0082596e-15
       6523.3000   5.0430768e-15
       6524.6000   5.0394675e-15
       6525.9000   4.9397453e-15
       6527.2000   5.1039057e-15
       6528.5000   4.9367272e-15
       6529.8000   4.8910511e-15
       6531.1000   4.9425145e-15
       6532.4000   4.9900576e-15
       6533.7000   4.9706110e-15
       6535.0000   4.8598743e-15
       6536.3000   4.8543981e-15
       6537.6000   4.8558605e-15
       6538.9000   4.9178718e-15
       6540.2000   4.9195831e-15
       6541.5000   4.8545848e-15
       6542.8000   4.8013478e-15
       6544.1000   4.8273596e-15
       6545.4000   4.8206389e-15
       6546.7000   5.0315333e-15
       6548.0000   4.8849215e-15
       6549.3000   4.6902378e-15
       6550.6000   4.7472085e-15
       6551.9000   4.8089087e-15
       6553.2000   4.8560472e-15
       6554.5000   4.7471774e-15
       6555.8000   4.8226613e-15
       6557.1000   4.8688664e-15
       6558.4000   4.6814013e-15
       6559.7000   4.7193610e-15
       6561.0000   4.7925113e-15
       6562.3000   4.7333626e-15
       6563.6000   4.7923557e-15
       6564.9000   4.7567918e-15
       6566.2000   4.7370652e-15
       6567.5000   4.6812457e-15
       6568.8000   4.6630748e-15
       6570.1000   4.7295044e-15
       6571.4000   4.6538649e-15
       6572.7000   4.5947473e-15
       6574.0000   4.6116425e-15
       6575.3000   4.4902024e-15
       6576.6000   4.4492868e-15
       6577.9000   4.5208813e-15
       6579.2000   4.5083110e-15
       6580.5000   4.3994413e-15
       6581.8000   4.4519937e-15
       6583.1000   4.5347584e-15
       6584.4000   4.4404502e-15
       6585.7000   4.4099891e-15
       6587.0000   4.4976699e-15
       6588.3000   4.6252395e-15
       6589.6000   4.5299357e-15
       6590.9000   4.5510313e-15
       6592.2000   5.0969671e-15
       6593.5000   6.1421670e-15
       6594.8000   7.3075934e-15
       6596.1000   8.3615676e-15
       6597.4000   9.0197024e-15
       6598.7000   7.3921628e-15
       6600.0000   5.1276772e-15
       6601.3000   4.3274733e-15
       6602.6000   4.4670532e-15
       6603.9000   4.4018060e-15
       6605.2000   4.3175789e-15
       6606.5000   4.3228995e-15
       6607.8000   4.2818283e-15
       6609.1000   4.2650886e-15
       6610.4000   4.2070289e-15
       6611.7000   3.9927430e-15
       6613.0000   3.9759100e-15
       6614.3000   3.8695294e-15
       6615.6000   3.6532522e-15
       6616.9000   3.6579505e-15
       6618.2000   4.0081447e-15
       6619.5000   4.0794593e-15
       6620.8000   3.9831286e-15
       6622.1000   4.0747921e-15
       6623.4000   4.1985346e-15
       6624.7000   4.3791546e-15
       6626.0000   4.3671755e-15
       6627.3000   4.3085557e-15
       6628.6000   4.4027083e-15
       6629.9000   4.4431261e-15
       6631.2000   4.4013081e-15
       6632.5000   4.5278510e-15
       6633.8000   4.4399835e-15
       6635.1000   4.3057865e-15
       6636.4000   4.3582767e-15
       6637.7000   4.4173321e-15
       6639.0000   4.4361875e-15
       6640.3000   4.3254509e-15
       6641.6000   4.2815482e-15
       6642.9000   4.3581522e-15
       6644.2000   4.4442773e-15
       6645.5000   4.5062264e-15
       6646.8000   4.4360942e-15
       6648.1000   4.3077778e-15
       6649.4000   4.2561899e-15
       6650.7000   4.3579656e-15
       6652.0000   4.4575943e-15
       6653.3000   4.4493801e-15
       6654.6000   4.3541074e-15
       6655.9000   4.3572810e-15
       6657.2000   4.4026149e-15
       6658.5000   4.2856865e-15
       6659.8000   4.3588990e-15
       6661.1000   4.4051663e-15
       6662.4000   4.3057242e-15
       6663.7000   4.2601103e-15
       6665.0000   4.4746762e-15
       6666.3000   4.3894846e-15
       6667.6000   4.2929050e-15
       6668.9000   4.3566276e-15
       6670.2000   4.4234306e-15
       6671.5000   4.2823261e-15
       6672.8000   4.2573411e-15
       6674.1000   4.2624750e-15
       6675.4000   4.3270999e-15
       6676.7000   4.2427795e-15
       6678.0000   4.2279068e-15
       6679.3000   4.2699114e-15
       6680.6000   4.1886091e-15
       6681.9000   4.2040419e-15
       6683.2000   4.2355609e-15
       6684.5000   4.2536385e-15
       6685.8000   4.2042908e-15
       6687.1000   4.1928718e-15
       6688.4000   4.1069023e-15
       6689.7000   4.3555386e-15
       6691.0000   4.2285602e-15
       6692.3000   4.2084913e-15
       6693.6000   4.1989702e-15
       6694.9000   3.9912806e-15
       6696.2000   4.0951410e-15
       6697.5000   4.0619107e-15
       6698.8000   4.1675445e-15
       6700.1000   4.3003414e-15
       6701.4000   4.1126585e-15
       6702.7000   4.0593904e-15
       6704.0000   4.0521718e-15
       6705.3000   3.9756922e-15
       6706.6000   4.0555633e-15
       6707.9000   4.0475357e-15
       6709.2000   4.1308294e-15
       6710.5000   4.0659867e-15
       6711.8000   4.0190970e-15
       6713.1000   4.1070579e-15
       6714.4000   4.0168568e-15
       6715.7000   3.9341854e-15
       6717.0000   3.9685670e-15
       6718.3000   4.1375190e-15
       6719.6000   4.1788391e-15
       6720.9000   4.0545676e-15
       6722.2000   4.0083936e-15
       6723.5000   3.9357101e-15
       6724.8000   3.9033198e-15
       6726.1000   3.9687226e-15
       6727.4000   4.0329741e-15
       6728.7000   3.9913117e-15
       6730.0000   3.9803594e-15
       6731.3000   4.0162345e-15
       6732.6000   3.9811373e-15
       6733.9000   4.0468823e-15
       6735.2000   4.0558433e-15
       6736.5000   3.9574591e-15
       6737.8000   3.8971280e-15
       6739.1000   3.8820686e-15
       6740.4000   3.9302339e-15
       6741.7000   3.9155478e-15
       6743.0000   3.8626531e-15
       6744.3000   3.9022308e-15
       6745.6000   3.7831554e-15
       6746.9000   3.7769014e-15
       6748.2000   3.7026310e-15
       6749.5000   3.7531299e-15
       6750.8000   3.8329387e-15
       6752.1000   3.9246955e-15
       6753.4000   3.8071136e-15
       6754.7000   3.8836865e-15
       6756.0000   3.9064002e-15
       6757.3000   3.7067692e-15
       6758.6000   3.8349300e-15
       6759.9000   3.9450444e-15
       6761.2000   3.7711141e-15
       6762.5000   3.7234466e-15
       6763.8000   3.7642378e-15
       6765.1000   3.7411819e-15
       6766.4000   3.8521053e-15
       6767.7000   3.8400639e-15
       6769.0000   3.8896294e-15
       6770.3000   3.9481870e-15
       6771.6000   3.8153590e-15
       6772.9000   3.8576748e-15
       6774.2000   3.9585792e-15
       6775.5000   3.9326608e-15
       6776.8000   3.9120630e-15
       6778.1000   3.9232954e-15
       6779.4000   3.9121563e-15
       6780.7000   3.8430821e-15
       6782.0000   3.8504562e-15
       6783.3000   3.9618463e-15
       6784.6000   4.0063090e-15
       6785.9000   4.0090470e-15
       6787.2000   3.9246644e-15
       6788.5000   3.9177881e-15
       6789.8000   4.0904738e-15
       6791.1000   4.1195970e-15
       6792.4000   3.8756590e-15
       6793.7000   3.6856736e-15
       6795.0000   3.7435466e-15
       6796.3000   3.8865802e-15
       6797.6000   3.8526342e-15
       6798.9000   3.8628709e-15
       6800.2000   3.8902206e-15
       6801.5000   3.8592616e-15
       6802.8000   3.8716452e-15
       6804.1000   3.9700605e-15
       6805.4000   4.0500249e-15
       6806.7000   4.0298004e-15
       6808.0000   3.8788638e-15
       6809.3000   3.8698717e-15
       6810.6000   3.8586082e-15
       6811.9000   3.8378859e-15
       6813.2000   3.8116875e-15
       6814.5000   3.8016686e-15
       6815.8000   3.7999884e-15
       6817.1000   3.8845577e-15
       6818.4000   3.8487760e-15
       6819.7000   3.8461935e-15
       6821.0000   3.9590460e-15
       6822.3000   3.9889159e-15
       6823.6000   3.9138365e-15
       6824.9000   3.8940477e-15
       6826.2000   3.8164791e-15
       6827.5000   3.7166014e-15
       6828.8000   3.6815976e-15
       6830.1000   3.7418042e-15
       6831.4000   3.7607218e-15
       6832.7000   3.8049667e-15
       6834.0000   3.8518875e-15
       6835.3000   3.7468448e-15
       6836.6000   3.6778016e-15
       6837.9000   3.7570192e-15
       6839.2000   3.8262491e-15
       6840.5000   3.8332499e-15
       6841.8000   3.8271825e-15
       6843.1000   3.8572392e-15
       6844.4000   3.9926808e-15
       6845.7000   3.8656401e-15
       6847.0000   3.6664759e-15
       6848.3000   3.8832820e-15
       6849.6000   4.0248843e-15
       6850.9000   3.7325943e-15
       6852.2000   3.6779883e-15
       6853.5000   3.7255313e-15
       6854.8000   3.7559302e-15
       6856.1000   3.7726698e-15
       6857.4000   3.8306362e-15
       6858.7000   3.8439221e-15
       6860.0000   3.6904652e-15
       6861.3000   3.8078604e-15
       6862.6000   3.9931475e-15
       6863.9000   3.9212418e-15
       6865.2000   3.7258424e-15
       6866.5000   3.5861070e-15
       6867.8000   3.7211441e-15
       6869.1000   3.8543455e-15
       6870.4000   3.8661068e-15
       6871.7000   3.8450423e-15
       6873.0000   3.8123720e-15
       6874.3000   3.8219864e-15
       6875.6000   3.7062092e-15
       6876.9000   3.5870716e-15
       6878.2000   3.6375082e-15
       6879.5000   3.7021020e-15
       6880.8000   3.7009819e-15
       6882.1000   3.6126477e-15
       6883.4000   3.5161926e-15
       6884.7000   3.4817177e-15
       6886.0000   3.4839891e-15
       6887.3000   3.5241268e-15
       6888.6000   3.4916121e-15
       6889.9000   3.4129235e-15
       6891.2000   3.4796330e-15
       6892.5000   3.6838378e-15
       6893.8000   3.5944146e-15
       6895.1000   3.4404598e-15
       6896.4000   3.4947858e-15
       6897.7000   3.3566372e-15
       6899.0000   3.1222825e-15
       6900.3000   3.2323969e-15
       6901.6000   3.3715722e-15
       6902.9000   3.5068272e-15
       6904.2000   3.5447247e-15
       6905.5000   3.4075095e-15
       6906.8000   3.4250270e-15
       6908.1000   3.3743414e-15
       6909.4000   3.3638247e-15
       6910.7000   3.4496697e-15
       6912.0000   3.4155993e-15
       6913.3000   3.4615866e-15
       6914.6000   3.3525923e-15
       6915.9000   3.2604933e-15
       6917.2000   3.4141991e-15
       6918.5000   3.5521610e-15
       6919.8000   3.6259025e-15
       6921.1000   3.3931657e-15
       6922.4000   3.4373173e-15
       6923.7000   3.4267694e-15
       6925.0000   3.4009755e-15
       6926.3000   3.3990464e-15
       6927.6000   3.3376262e-15
       6928.9000   3.3538369e-15
       6930.2000   3.4105276e-15
       6931.5000   3.4636402e-15
       6932.8000   3.3891519e-15
       6934.1000   3.4580707e-15
       6935.4000   3.5946324e-15
       6936.7000   3.3963705e-15
       6938.0000   3.3753682e-15
       6939.3000   3.5063293e-15
       6940.6000   3.4983951e-15
       6941.9000   3.4763971e-15
       6943.2000   3.4391841e-15
       6944.5000   3.3838625e-15
       6945.8000   3.3632024e-15
       6947.1000   3.4953459e-15
       6948.4000   3.4382818e-15
       6949.7000   3.3834891e-15
       6951.0000   3.4657248e-15
       6952.3000   3.4487985e-15
       6953.6000   3.4903364e-15
       6954.9000   3.6545590e-15
       6956.2000   3.6991773e-15
       6957.5000   3.5478361e-15
       6958.8000   3.5101253e-15
       6960.1000   3.6692140e-15
       6961.4000   3.5579172e-15
       6962.7000   3.4326190e-15
       6964.0000   3.4185863e-15
       6965.3000   3.5072005e-15
       6966.6000   3.6140479e-15
       6967.9000   3.5955036e-15
       6969.2000   3.5912720e-15
       6970.5000   3.6735700e-15
       6971.8000   3.6775216e-15
       6973.1000   3.5474939e-15
       6974.4000   3.5604686e-15
       6975.7000   3.6193062e-15
       6977.0000   3.6560525e-15
       6978.3000   3.6641423e-15
       6979.6000   3.5905564e-15
       6980.9000   3.6514164e-15
       6982.2000   3.7058358e-15
       6983.5000   3.6990217e-15
       6984.8000   3.7016353e-15
       6986.1000   3.5524100e-15
       6987.4000   3.5336168e-15
       6988.7000   3.5459381e-15
       6990.0000   3.6595062e-15
       6991.3000   3.8706495e-15
       6992.6000   3.8784593e-15
       6993.9000   3.6780505e-15
       6995.2000   3.5136101e-15
       6996.5000   3.6099408e-15
       6997.8000   3.7003596e-15
       6999.1000   3.6573593e-15
       7000.4000   3.6710497e-15
       7001.7000   3.7385372e-15
       7003.0000   3.6759969e-15
       7004.3000   3.5403375e-15
       7005.6000   3.5451914e-15
       7006.9000   3.6440423e-15
       7008.2000   3.6790462e-15
       7009.5000   3.7149835e-15
       7010.8000   3.6693384e-15
       7012.1000   3.6055847e-15
       7013.4000   3.6041223e-15
       7014.7000   3.7565525e-15
       7016.0000   3.9207128e-15
       7017.3000   3.7807285e-15
       7018.6000   3.6619643e-15
       7019.9000   3.7114364e-15
       7021.2000   3.7546545e-15
       7022.5000   3.7335277e-15
       7023.8000   3.7392217e-15
       7025.1000   3.6976838e-15
       7026.4000   3.6728855e-15
       7027.7000   3.7295451e-15
       7029.0000   3.6917409e-15
       7030.3000   3.6443534e-15
       7031.6000   3.6230089e-15
       7032.9000   3.5909298e-15
       7034.2000   3.6595373e-15
       7035.5000   3.7480893e-15
       7036.8000   3.6803530e-15
       7038.1000   3.6037490e-15
       7039.4000   3.6862025e-15
       7040.7000   3.7292028e-15
       7042.0000   3.6549946e-15
       7043.3000   3.6782683e-15
       7044.6000   3.7218287e-15
       7045.9000   3.7007952e-15
       7047.2000   3.7862669e-15
       7048.5000   3.8158257e-15
       7049.8000   3.8160124e-15
       7051.1000   3.9241666e-15
       7052.4000   3.7889116e-15
       7053.7000   3.7325943e-15
       7055.0000   3.8402506e-15
       7056.3000   3.8923364e-15
       7057.6000   3.8301695e-15
       7058.9000   3.7909652e-15
       7060.2000   3.7631799e-15
       7061.5000   3.7650157e-15
       7062.8000   3.8703695e-15
       7064.1000   3.8097273e-15
       7065.4000   3.9207128e-15
       7066.7000   3.7606285e-15
       7068.0000   3.6224177e-15
       7069.3000   3.5981483e-15
       7070.6000   3.6247513e-15
       7071.9000   3.7169126e-15
       7073.2000   3.6344901e-15
       7074.5000   3.8095406e-15
       7075.8000   3.8416508e-15
       7077.1000   3.7400307e-15
       7078.4000   3.8783348e-15
       7079.7000   3.7720475e-15
       7081.0000   3.5899963e-15
       7082.3000   3.6507319e-15
       7083.6000   3.8438599e-15
       7084.9000   3.7716119e-15
       7086.2000   3.5887518e-15
       7087.5000   3.5942279e-15
       7088.8000   3.8247245e-15
       7090.1000   3.8472514e-15
       7091.4000   3.6892829e-15
       7092.7000   3.6617154e-15
       7094.0000   3.6885672e-15
       7095.3000   3.6905274e-15
       7096.6000   3.7001107e-15
       7097.9000   3.6938567e-15
       7099.2000   3.6745657e-15
       7100.5000   3.6891895e-15
       7101.8000   3.7929876e-15
       7103.1000   3.9063068e-15
       7104.4000   3.7744434e-15
       7105.7000   3.6306319e-15
       7107.0000   3.6552124e-15
       7108.3000   3.8007352e-15
       7109.6000   3.8121853e-15
       7110.9000   3.7191528e-15
       7112.2000   3.6770237e-15
       7113.5000   3.7120276e-15
       7114.8000   3.7835910e-15
       7116.1000   3.7084805e-15
       7117.4000   3.6132700e-15
       7118.7000   3.7049335e-15
       7120.0000   3.7110941e-15
       7121.3000   3.6000463e-15
       7122.6000   3.7554324e-15
       7123.9000   3.8898161e-15
       7125.2000   3.7508897e-15
       7126.5000   3.6695873e-15
       7127.8000   3.7409019e-15
       7129.1000   3.8051534e-15
       7130.4000   3.7347412e-15
       7131.7000   3.6563325e-15
       7133.0000   3.6905897e-15
       7134.3000   3.7589172e-15
       7135.6000   3.7558991e-15
       7136.9000   3.6330278e-15
       7138.2000   3.5823422e-15
       7139.5000   3.5977127e-15
       7140.8000   3.7260291e-15
       7142.1000   3.7512008e-15
       7143.4000   3.6592884e-15
       7144.7000   3.4650403e-15
       7146.0000   3.4905542e-15
       7147.3000   3.6857669e-15
       7148.6000   3.5388440e-15
       7149.9000   3.5212643e-15
       7151.2000   3.7085739e-15
       7152.5000   3.4043047e-15
       7153.8000   3.4100609e-15
       7155.1000   3.5716699e-15
       7156.4000   3.6242846e-15
       7157.7000   3.5747191e-15
       7159.0000   3.6227911e-15
       7160.3000   3.6571104e-15
       7161.6000   3.5390307e-15
       7162.9000   3.5713898e-15
       7164.2000   3.6101274e-15
       7165.5000   3.5189618e-15
       7166.8000   3.2872829e-15
       7168.1000   3.3719456e-15
       7169.4000   3.4522834e-15
       7170.7000   3.4356060e-15
       7172.0000   3.4507587e-15
       7173.3000   3.4789174e-15
       7174.6000   3.3511300e-15
       7175.9000   3.3537125e-15
       7177.2000   3.3533080e-15
       7178.5000   3.3934769e-15
       7179.8000   3.3777018e-15
       7181.1000   3.2663428e-15
       7182.4000   3.3099343e-15
       7183.7000   3.2692365e-15
       7185.0000   3.2574752e-15
       7186.3000   3.2551105e-15
       7187.6000   3.1550150e-15
       7188.9000   3.2526213e-15
       7190.2000   3.3847959e-15
       7191.5000   3.2036470e-15
       7192.8000   3.2119546e-15
       7194.1000   3.2317123e-15
       7195.4000   3.1499122e-15
       7196.7000   3.3196420e-15
       7198.0000   3.3846714e-15
       7199.3000   3.3066050e-15
       7200.6000   3.1989487e-15
       7201.9000   3.1953394e-15
       7203.2000   3.2329569e-15
       7204.5000   3.2511278e-15
       7205.8000   3.3616156e-15
       7207.1000   3.3660961e-15
       7208.4000   3.2744326e-15
       7209.7000   3.1620780e-15
       7211.0000   3.0943603e-15
       7212.3000   3.0694002e-15
       7213.6000   3.1899877e-15
       7214.9000   3.2585020e-15
       7216.2000   3.0986043e-15
       7217.5000   3.0950759e-15
       7218.8000   3.2589064e-15
       7220.1000   3.2474563e-15
       7221.4000   3.1402667e-15
       7222.7000   3.1147216e-15
       7224.0000   3.3956238e-15
       7225.3000   3.3946903e-15
       7226.6000   3.0564721e-15
       7227.9000   3.1505345e-15
       7229.2000   3.4421400e-15
       7230.5000   3.4046470e-15
       7231.8000   3.1122014e-15
       7233.1000   3.0500718e-15
       7234.4000   3.3092809e-15
       7235.7000   3.2161239e-15
       7237.0000   3.1380887e-15
       7238.3000   3.1279453e-15
       7239.6000   3.1191399e-15
       7240.9000   3.0184283e-15
       7242.2000   3.1578464e-15
       7243.5000   3.2829891e-15
       7244.8000   3.1896144e-15
       7246.1000   3.0652495e-15
       7247.4000   3.0866439e-15
       7248.7000   3.0658656e-15
       7250.0000   3.1511568e-15
       7251.3000   3.2646938e-15
       7252.6000   3.2935369e-15
       7253.9000   3.1836092e-15
       7255.2000   3.0613602e-15
       7256.5000   3.0933335e-15
       7257.8000   2.9702973e-15
       7259.1000   2.9748649e-15
       7260.4000   3.0115489e-15
       7261.7000   3.0058487e-15
       7263.0000   3.1081440e-15
       7264.3000   3.1624825e-15
       7265.6000   3.0184439e-15
       7266.9000   2.9205607e-15
       7268.2000   3.0130984e-15
       7269.5000   3.0415589e-15
       7270.8000   2.9201593e-15
       7272.1000   3.0318045e-15
       7273.4000   3.1545483e-15
       7274.7000   3.0431706e-15
       7276.0000   2.9193876e-15
       7277.3000   2.8859457e-15
       7278.6000   2.8215604e-15
       7279.9000   2.8967798e-15
       7281.2000   3.0808472e-15
       7282.5000   2.9863337e-15
       7283.8000   2.8972621e-15
       7285.1000   2.9919779e-15
       7286.4000   3.0045979e-15
       7287.7000   2.9535950e-15
       7289.0000   2.9985399e-15
       7290.3000   3.0352053e-15
       7291.6000   2.9315908e-15
       7292.9000   2.9610376e-15
       7294.2000   3.0060043e-15
       7295.5000   3.0311293e-15
       7296.8000   3.0157183e-15
       7298.1000   2.7903401e-15
       7299.4000   2.7904987e-15
       7300.7000   2.8584031e-15
       7302.0000   2.9327171e-15
       7303.3000   2.7032504e-15
       7304.6000   2.7029331e-15
       7305.9000   2.7562074e-15
       7307.2000   2.6107936e-15
       7308.5000   2.6584548e-15
       7309.8000   2.6903877e-15
       7311.1000   2.9268738e-15
       7312.4000   2.9210585e-15
       7313.7000   2.8140120e-15
       7315.0000   2.6735609e-15
       7316.3000   2.9304084e-15
       7317.6000   3.0619638e-15
       7318.9000   2.8843931e-15
       7320.2000   2.8880335e-15
       7321.5000   2.8325718e-15
       7322.8000   2.8843464e-15
       7324.1000   2.6909695e-15
       7325.4000   2.7673277e-15
       7326.7000   2.8355682e-15
       7328.0000   2.7877295e-15
       7329.3000   2.7993944e-15
       7330.6000   2.8028014e-15
       7331.9000   2.9579261e-15
       7333.2000   2.9807766e-15
       7334.5000   2.8342147e-15
       7335.8000   2.7464343e-15
       7337.1000   2.6810533e-15
       7338.4000   2.7061534e-15
       7339.7000   2.7105624e-15
       7341.0000   2.7565808e-15
       7342.3000   2.7966470e-15
       7343.6000   2.7173858e-15
       7344.9000   2.7692631e-15
       7346.2000   2.8680860e-15
       7347.5000   2.7900196e-15
       7348.8000   2.7466832e-15
       7350.1000   2.7330924e-15
       7351.4000   2.6907704e-15
       7352.7000   2.6242817e-15
       7354.0000   2.6620268e-15
       7355.3000   2.7752246e-15
       7356.6000   2.6596216e-15
       7357.9000   2.5587016e-15
       7359.2000   2.6888444e-15
       7360.5000   2.6508598e-15
       7361.8000   2.5514457e-15
       7363.1000   2.6246022e-15
       7364.4000   2.7766123e-15
       7365.7000   2.7832802e-15
       7367.0000   2.7460889e-15
       7368.3000   2.7340663e-15
       7369.6000   2.6154327e-15
       7370.9000   2.5373259e-15
       7372.2000   2.5026363e-15
       7373.5000   2.5456926e-15
       7374.8000   2.5553661e-15
       7376.1000   2.6110674e-15
       7377.4000   2.6594412e-15
       7378.7000   2.5643209e-15
       7380.0000   2.5710478e-15
       7381.3000   2.6193874e-15
       7382.6000   2.5366694e-15
       7383.9000   2.5627558e-15
       7385.2000   2.6073616e-15
       7386.5000   2.6247640e-15
       7387.8000   2.6558039e-15
       7389.1000   2.6713114e-15
       7390.4000   2.5874234e-15
       7391.7000   2.5459695e-15
       7393.0000   2.4776015e-15
       7394.3000   2.4684601e-15
       7395.6000   2.5044192e-15
       7396.9000   2.5105363e-15
       7398.2000   2.5466914e-15
       7399.5000   2.4104812e-15
       7400.8000   2.4667519e-15
       7402.1000   2.5494543e-15
       7403.4000   2.5932730e-15
       7404.7000   2.4157583e-15
       7406.0000   2.3880196e-15
       7407.3000   2.4810490e-15
       7408.6000   2.4583012e-15
       7409.9000   2.3792764e-15
       7411.2000   2.4105310e-15
       7412.5000   2.4009602e-15
       7413.8000   2.3788097e-15
       7415.1000   2.4450028e-15
       7416.4000   2.4048153e-15
       7417.7000   2.2977408e-15
       7419.0000   2.3182204e-15
       7420.3000   2.3852349e-15
       7421.6000   2.3159583e-15
       7422.9000   2.2856403e-15
       7424.2000   2.3605953e-15
       7425.5000   2.4001574e-15
       7426.8000   2.3698332e-15
       7428.1000   2.3673720e-15
       7429.4000   2.4094731e-15
       7430.7000   2.4468386e-15
       7432.0000   2.4154160e-15
       7433.3000   2.3842112e-15
       7434.6000   2.3651909e-15
       7435.9000   2.3343813e-15
       7437.2000   2.3080801e-15
       7438.5000   2.2784747e-15
       7439.8000   2.3519517e-15
       7441.1000   2.3726522e-15
       7442.4000   2.3247980e-15
       7443.7000   2.3893949e-15
       7445.0000   2.3649015e-15
       7446.3000   2.2864804e-15
       7447.6000   2.3236436e-15
       7448.9000   2.3643539e-15
       7450.2000   2.4065764e-15
       7451.5000   2.4181261e-15
       7452.8000   2.4660985e-15
       7454.1000   2.4256994e-15
       7455.4000   2.4893753e-15
       7456.7000   2.4376536e-15
       7458.0000   2.3995880e-15
       7459.3000   2.4267168e-15
       7460.6000   2.3723784e-15
       7461.9000   2.3351311e-15
       7463.2000   2.4122050e-15
       7464.5000   2.4008793e-15
       7465.8000   2.4677693e-15
       7467.1000   2.4435715e-15
       7468.4000   2.3807357e-15
       7469.7000   2.2412243e-15
       7471.0000   2.4274822e-15
       7472.3000   2.4889552e-15
       7473.6000   2.4403543e-15
       7474.9000   2.3589804e-15
       7476.2000   2.3694349e-15
       7477.5000   2.4006210e-15
       7478.8000   2.4642036e-15
       7480.1000   2.3815789e-15
       7481.4000   2.3822790e-15
       7482.7000   2.3745533e-15
       7484.0000   2.3972544e-15
       7485.3000   2.4022857e-15
       7486.6000   2.4215549e-15
       7487.9000   2.4020274e-15
       7489.2000   2.4605445e-15
       7490.5000   2.4411633e-15
       7491.8000   2.3685295e-15
       7493.1000   2.3973073e-15
       7494.4000   2.4172860e-15
       7495.7000   2.4685628e-15
       7497.0000   2.4518542e-15
       7498.3000   2.4631582e-15
       7499.6000   2.4847330e-15
       7500.9000   2.4618047e-15
       7502.2000   2.4219843e-15
       7503.5000   2.4308861e-15
       7504.8000   2.4320156e-15
       7506.1000   2.4106368e-15
       7507.4000   2.4412068e-15
       7508.7000   2.4508710e-15
       7510.0000   2.4649504e-15
       7511.3000   2.5036786e-15
       7512.6000   2.5268061e-15
       7513.9000   2.5158475e-15
       7515.2000   2.4721565e-15
       7516.5000   2.4842538e-15
       7517.8000   2.5217562e-15
       7519.1000   2.5586643e-15
       7520.4000   2.5130597e-15
       7521.7000   2.4464030e-15
       7523.0000   2.4846241e-15
       7524.3000   2.5107821e-15
       7525.6000   2.5838204e-15
       7526.9000   2.6232892e-15
       7528.2000   2.5134144e-15
       7529.5000   2.4035022e-15
       7530.8000   2.4480334e-15
       7532.1000   2.5421549e-15
       7533.4000   2.5658673e-15
       7534.7000   2.5378331e-15
       7536.0000   2.5354652e-15
       7537.3000   2.5867669e-15
       7538.6000   2.5622642e-15
       7539.9000   2.4780527e-15
       7541.2000   2.5074030e-15
       7542.5000   2.4099678e-15
       7543.8000   2.4443681e-15
       7545.1000   2.6377637e-15
       7546.4000   2.6406760e-15
       7547.7000   2.4994097e-15
       7549.0000   2.5845982e-15
       7550.3000   2.5466883e-15
       7551.6000   2.5535521e-15
       7552.9000   2.5972650e-15
       7554.2000   2.5761693e-15
       7555.5000   2.5384336e-15
       7556.8000   2.5861384e-15
       7558.1000   2.5838359e-15
       7559.4000   2.6460806e-15
       7560.7000   2.6563297e-15
       7562.0000   2.5975263e-15
       7563.3000   2.6898121e-15
       7564.6000   2.6536227e-15
       7565.9000   2.5980895e-15
       7567.2000   2.7098125e-15
       7568.5000   2.7575671e-15
       7569.8000   2.7464592e-15
       7571.1000   2.6589495e-15
       7572.4000   2.5828963e-15
       7573.7000   2.6716972e-15
       7575.0000   2.7429370e-15
       7576.3000   2.7219565e-15
       7577.6000   2.7337831e-15
       7578.9000   2.8131501e-15
       7580.2000   2.7899667e-15
       7581.5000   2.7407030e-15
       7582.8000   2.7231513e-15
       7584.1000   2.7363439e-15
       7585.4000   2.6684519e-15
       7586.7000   2.6800857e-15
       7588.0000   2.8297342e-15
       7589.3000   2.8070735e-15
       7590.6000   2.6922950e-15
       7591.9000   2.5534743e-15
       7593.2000   2.6996069e-15
       7594.5000   2.8597659e-15
       7595.8000   2.6574063e-15
       7597.1000   2.7611639e-15
       7598.4000   3.0240912e-15
       7599.7000   3.0693846e-15
       7601.0000   2.7297320e-15
       7602.3000   2.7222832e-15
       7603.6000   2.8268312e-15
       7604.9000   2.5861695e-15
       7606.2000   2.4813384e-15
       7607.5000   2.5355181e-15
       7608.8000   2.6594100e-15
       7610.1000   2.6783215e-15
       7611.4000   2.7348037e-15
       7612.7000   2.6170974e-15
       7614.0000   2.6102833e-15
       7615.3000   2.9285695e-15
       7616.6000   2.8207421e-15
       7617.9000   2.7956886e-15
       7619.2000   2.7513722e-15
       7620.5000   2.7574613e-15
       7621.8000   2.7122550e-15
       7623.1000   2.8002749e-15
       7624.4000   2.9159993e-15
       7625.7000   2.7324203e-15
       7627.0000   2.4654108e-15
       7628.3000   2.4537584e-15
       7629.6000   2.8430294e-15
       7630.9000   3.1084334e-15
       7632.2000   2.7797829e-15
       7633.5000   2.5686800e-15
       7634.8000   2.8029726e-15
       7636.1000   2.8139124e-15
       7637.4000   2.6277883e-15
       7638.7000   2.5859517e-15
       7640.0000   2.6587629e-15
       7641.3000   2.6788131e-15
       7642.6000   2.6758852e-15
       7643.9000   2.7572155e-15
       7645.2000   2.8907249e-15
       7646.5000   2.7923252e-15
       7647.8000   2.6005227e-15
       7649.1000   2.5947105e-15
       7650.4000   2.6793420e-15
       7651.7000   2.7141032e-15
       7653.0000   2.8249799e-15
       7654.3000   2.9006287e-15
       7655.6000   2.8200420e-15
       7656.9000   2.8369776e-15
       7658.2000   2.7603736e-15
       7659.5000   2.6520297e-15
       7660.8000   2.6705677e-15
       7662.1000   2.7983116e-15
       7663.4000   2.8996952e-15
       7664.7000   2.9486260e-15
       7666.0000   2.9473907e-15
       7667.3000   2.9252496e-15
       7668.6000   2.9969998e-15
       7669.9000   2.7916624e-15
       7671.2000   2.7026997e-15
       7672.5000   2.7648977e-15
       7673.8000   2.6803812e-15
       7675.1000   2.6429816e-15
       7676.4000   2.6628980e-15
       7677.7000   2.8094133e-15
       7679.0000   2.8437606e-15
       7680.3000   2.7783796e-15
       7681.6000   2.8063423e-15
       7682.9000   2.8269090e-15
       7684.2000   2.7757784e-15
       7685.5000   2.7078585e-15
       7686.8000   2.8913254e-15
       7688.1000   2.8665334e-15
       7689.4000   2.7327439e-15
       7690.7000   2.7407372e-15
       7692.0000   2.7665094e-15
       7693.3000   2.8548249e-15
       7694.6000   2.8537110e-15
       7695.9000   2.7690297e-15
       7697.2000   2.8021885e-15
       7698.5000   2.9022404e-15
       7699.8000   2.8905476e-15
       7701.1000   2.7468170e-15
       7702.4000   2.6742548e-15
       7703.7000   2.8281909e-15
       7705.0000   2.8687269e-15
       7706.3000   3.0044392e-15
       7707.6000   3.0450935e-15
       7708.9000   2.9615354e-15
       7710.2000   2.8376933e-15
       7711.5000   2.8579644e-15
       7712.8000   2.8718166e-15
       7714.1000   2.7035771e-15
       7715.4000   2.7103694e-15
       7716.7000   2.7565652e-15
       7718.0000   2.8162709e-15
       7719.3000   2.9367278e-15
       7720.6000   2.8556806e-15
       7721.9000   2.7656071e-15
       7723.2000   2.7809590e-15
       7724.5000   2.7533915e-15
       7725.8000   2.6782250e-15
       7727.1000   2.7263997e-15
       7728.4000   2.8350579e-15
       7729.7000   2.7215676e-15
       7731.0000   2.6449822e-15
       7732.3000   2.7210728e-15
       7733.6000   2.7703676e-15
       7734.9000   2.7414155e-15
       7736.2000   2.7049493e-15
       7737.5000   2.7584290e-15
       7738.8000   2.7209546e-15
       7740.1000   2.5382749e-15
       7741.4000   2.4837809e-15
       7742.7000   2.5445382e-15
       7744.0000   2.5990292e-15
       7745.3000   2.5772427e-15
       7746.6000   2.5712345e-15
       7747.9000   2.5284707e-15
       7749.2000   2.5857432e-15
       7750.5000   2.7148686e-15
       7751.8000   2.7221556e-15
       7753.1000   2.7062966e-15
       7754.4000   2.6483924e-15
       7755.7000   2.6013565e-15
       7757.0000   2.5926693e-15
       7758.3000   2.6146362e-15
       7759.6000   2.6233763e-15
       7760.9000   2.5778557e-15
       7762.2000   2.4453295e-15
       7763.5000   2.4052695e-15
       7764.8000   2.3833525e-15
       7766.1000   2.3973229e-15
       7767.4000   2.4972286e-15
       7768.7000   2.6118452e-15
       7770.0000   2.5397622e-15
       7771.3000   2.4256340e-15
       7772.6000   2.3234321e-15
       7773.9000   2.2394352e-15
       7775.2000   2.2517784e-15
       7776.5000   2.3741177e-15
       7777.8000   2.3980416e-15
       7779.1000   2.2154988e-15
       7780.4000   2.0873784e-15
       7781.7000   2.2649896e-15
       7783.0000   2.3357659e-15
       7784.3000   2.1879344e-15
       7785.6000   2.1941138e-15
       7786.9000   2.1806225e-15
       7788.2000   2.1314304e-15
       7789.5000   2.1407430e-15
       7790.8000   2.1081847e-15
       7792.1000   2.0748175e-15
       7793.4000   2.1454320e-15
       7794.7000   2.1454600e-15
       7796.0000   2.0733831e-15
       7797.3000   2.1480891e-15
       7798.6000   2.1301703e-15
       7799.9000   2.0643537e-15
       7801.2000   2.0077034e-15
       7802.5000   1.8662411e-15
       7803.8000   1.8727596e-15
       7805.1000   2.0138610e-15
       7806.4000   2.0047911e-15
       7807.7000   1.9842368e-15
       7809.0000   1.9351163e-15
       7810.3000   1.7828542e-15
       7811.6000   1.7955707e-15
       7812.9000   1.9179006e-15
       7814.2000   1.9109870e-15
       7815.5000   1.9002493e-15
       7816.8000   1.8486988e-15
       7818.1000   1.7737967e-15
       7819.4000   1.7416896e-15
       7820.7000   1.6936083e-15
       7822.0000   1.7303421e-15
       7823.3000   1.8203161e-15
       7824.6000   1.7919801e-15
       7825.9000   1.7484072e-15
       7827.2000   1.7058705e-15
       7828.5000   1.7137301e-15
       7829.8000   1.7509804e-15
       7831.1000   1.8138785e-15
       7832.4000   1.7547608e-15
       7833.7000   1.7202984e-15
       7835.0000   1.6968784e-15
       7836.3000   1.7585381e-15
       7837.6000   1.8028141e-15
       7838.9000   1.6976065e-15
       7840.2000   1.6005509e-15
       7841.5000   1.6148418e-15
       7842.8000   1.5251137e-15
       7844.1000   1.4167697e-15
       7845.4000   1.4706228e-15
       7846.7000   1.4984859e-15
       7848.0000   1.5213240e-15
       7849.3000   1.5398091e-15
       7850.6000   1.6013568e-15
       7851.9000   1.5608581e-15
       7853.2000   1.5496693e-15
       7854.5000   1.4674211e-15
       7855.8000   1.4313842e-15
       7857.1000   1.5244416e-15
       7858.4000   1.4960372e-15
       7859.7000   1.4325790e-15
       7861.0000   1.4151549e-15
       7862.3000   1.4190224e-15
       7863.6000   1.4054254e-15
       7864.9000   1.4198968e-15
       7866.2000   1.3768187e-15
       7867.5000   1.3975130e-15
       7868.8000   1.5568661e-15
       7870.1000   1.5296098e-15
       7871.4000   1.4925492e-15
       7872.7000   1.5413462e-15
       7874.0000   1.5024530e-15
       7875.3000   1.5425721e-15
       7876.6000   1.4464717e-15
       7877.9000   1.4296885e-15
       7879.2000   1.5676037e-15
       7880.5000   1.6123620e-15
       7881.8000   1.5087661e-15
       7883.1000   1.4147691e-15
       7884.4000   1.4168600e-15
       7885.7000   1.3838817e-15
       7887.0000   1.3798897e-15
       7888.3000   1.3595034e-15
       7889.6000   1.3257939e-15
       7890.9000   1.2201351e-15
       7892.2000   1.3556608e-15
       7893.5000   1.5052626e-15
       7894.8000   1.3945851e-15
       7896.1000   1.3646684e-15
       7897.4000   1.3454739e-15
       7898.7000   1.3847684e-15
       7900.0000   1.3846097e-15
       7901.3000   1.2868354e-15
       7902.6000   1.2647036e-15
       7903.9000   1.3195555e-15
       7905.2000   1.3806738e-15
       7906.5000   1.3328289e-15
       7907.8000   1.3027038e-15
       7909.1000   1.3606204e-15
       7910.4000   1.3469394e-15
       7911.7000   1.3326671e-15
       7913.0000   1.2651206e-15
       7914.3000   1.2297495e-15
       7915.6000   1.3584237e-15
       7916.9000   1.3572009e-15
       7918.2000   1.2542460e-15
       7919.5000   1.1372491e-15
       7920.8000   1.1516645e-15
       7922.1000   1.2659513e-15
       7923.4000   1.2475066e-15
       7924.7000   1.2507799e-15
       7926.0000   1.2843182e-15
       7927.3000   1.2222758e-15
       7928.6000   1.1467173e-15
       7929.9000   1.1460296e-15
       7931.2000   1.1576820e-15
       7932.5000   1.1446699e-15
       7933.8000   1.1054065e-15
       7935.1000   1.1802401e-15
       7936.4000   1.2082649e-15
       7937.7000   1.1092927e-15
       7939.0000   1.0797183e-15
       7940.3000   1.0756859e-15
       7941.6000   1.0605891e-15
       7942.9000   1.0490580e-15
       7944.2000   1.1930779e-15
       7945.5000   1.1307835e-15
       7946.8000   1.1032005e-15
       7948.1000   1.0888100e-15
       7949.4000   1.1244455e-15
       7950.7000   1.1048526e-15
       7952.0000   1.1426568e-15
       7953.3000   1.0791209e-15
       7954.6000   1.0611647e-15
       7955.9000   1.1074632e-15
       7957.2000   1.1744154e-15
       7958.5000   1.2010277e-15
       7959.8000   1.1058576e-15
       7961.1000   9.2533727e-16
       7962.4000   9.1662831e-16
       7963.7000   9.8419977e-16
       7965.0000   1.0420137e-15
       7966.3000   1.0257750e-15
       7967.6000   9.1948773e-16
       7968.9000   8.3990606e-16
       7970.2000   1.0135034e-15
       7971.5000   1.0210269e-15
       7972.8000   1.0869120e-15
       7974.1000   1.1044357e-15
       7975.4000   1.1243303e-15
       7976.7000   1.1964103e-15
       7978.0000   1.0940528e-15
       7979.3000   9.0815582e-16
       7980.6000   9.4834025e-16
       7981.9000   1.1104657e-15
       7983.2000   9.9133744e-16
       7984.5000   9.3909612e-16
       7985.8000   1.0656670e-15
       7987.1000   1.1155156e-15
       7988.4000   9.9806130e-16
       7989.7000   9.4263696e-16
       7991.0000   1.1013647e-15
       7992.3000   1.1486993e-15
       7993.6000   9.8610398e-16
       7994.9000   9.8270316e-16
       7996.2000   1.0452745e-15
       7997.5000   9.7902542e-16
       7998.8000   9.1642295e-16
       8000.1000   9.1002891e-16
       8001.4000   9.0693301e-16
       8002.7000   9.7252559e-16
       8004.0000   9.9539789e-16
       8005.3000   9.4203644e-16
       8006.6000   9.2163775e-16
       8007.9000   9.9636867e-16
       8009.2000   1.0726709e-15
       8010.5000   9.4898743e-16
       8011.8000   9.7568060e-16
       8013.1000   1.0874285e-15
       8014.4000   1.0635170e-15
       8015.7000   1.0169478e-15
       8017.0000   9.6971283e-16
       8018.3000   1.1141901e-15
       8019.6000   1.1754920e-15
       8020.9000   1.1699785e-15
       8022.2000   1.0827302e-15
       8023.5000   1.0104013e-15
       8024.8000   1.0372190e-15
       8026.1000   1.0861932e-15
       8027.4000   1.0048567e-15
       8028.7000   9.7575528e-16
       8030.0000   1.0572785e-15
       8031.3000   9.7215844e-16
       8032.6000   9.2947550e-16
       8033.9000   1.0563295e-15
       8035.2000   1.1240410e-15
       8036.5000   1.0507507e-15
       8037.8000   1.0459124e-15
       8039.1000   1.1398441e-15
       8040.4000   1.1785163e-15
       8041.7000   1.1615029e-15
       8043.0000   1.1316765e-15
       8044.3000   1.0490487e-15
       8045.6000   1.0936794e-15
       8046.9000   1.1096443e-15
       8048.2000   1.1767926e-15
       8049.5000   1.1864692e-15
       8050.8000   1.2656028e-15
       8052.1000   1.2893961e-15
       8053.4000   1.1418229e-15
       8054.7000   1.0939594e-15
       8056.0000   1.0988195e-15
       8057.3000   1.0802846e-15
       8058.6000   1.1697763e-15
       8059.9000   1.1142555e-15
       8061.2000   1.0440579e-15
       8062.5000   1.1374202e-15
       8063.8000   1.2265012e-15
       8065.1000   1.2253406e-15
       8066.4000   1.1239165e-15
       8067.7000   1.1535780e-15
       8069.0000   1.2081156e-15
       8070.3000   1.1747701e-15
       8071.6000   1.1828630e-15
       8072.9000   1.1827012e-15
       8074.2000   1.1810926e-15
       8075.5000   1.1456189e-15
       8076.8000   1.2220300e-15
       8078.1000   1.2721929e-15
       8079.4000   1.1849602e-15
       8080.7000   1.1995933e-15
       8082.0000   1.2690690e-15
       8083.3000   1.2712750e-15
       8084.6000   1.2232404e-15
       8085.9000   1.1769979e-15
       8087.2000   1.1795773e-15
       8088.5000   1.2376900e-15
       8089.8000   1.3174397e-15
       8091.1000   1.2463647e-15
       8092.4000   1.2358791e-15
       8093.7000   1.3163724e-15
       8095.0000   1.2631790e-15
       8096.3000   1.3099971e-15
       8097.6000   1.3578015e-15
       8098.9000   1.3193003e-15
       8100.2000   1.2922462e-15
       8101.5000   1.1053474e-15
       8102.8000   1.1244050e-15
       8104.1000   1.3150967e-15
       8105.4000   1.2735806e-15
       8106.7000   1.2282592e-15
       8108.0000   1.2083241e-15
       8109.3000   1.2908803e-15
       8110.6000   1.3429692e-15
       8111.9000   1.3092565e-15
       8113.2000   1.3503744e-15
       8114.5000   1.3036279e-15
       8115.8000   1.2388070e-15
       8117.1000   1.3486662e-15
       8118.4000   1.3192288e-15
       8119.7000   1.2826038e-15
       8121.0000   1.3527671e-15
       8122.3000   1.3273963e-15
       8123.6000   1.2489690e-15
       8124.9000   1.2785029e-15
       8126.2000   1.3742393e-15
       8127.5000   1.3334761e-15
       8128.8000   1.3190234e-15
       8130.1000   1.3097668e-15
       8131.4000   1.3469363e-15
       8132.7000   1.4064335e-15
       8134.0000   1.3475617e-15
       8135.3000   1.3556888e-15
       8136.6000   1.3751354e-15
       8137.9000   1.4300557e-15
       8139.2000   1.4385966e-15
       8140.5000   1.4047222e-15
       8141.8000   1.3930605e-15
       8143.1000   1.3999243e-15
       8144.4000   1.4699321e-15
       8145.7000   1.4608435e-15
       8147.0000   1.4150242e-15
       8148.3000   1.3883062e-15
       8149.6000   1.2929276e-15
       8150.9000   1.2684343e-15
       8152.2000   1.3533583e-15
       8153.5000   1.4083315e-15
       8154.8000   1.4011067e-15
       8156.1000   1.3487036e-15
       8157.4000   1.3749238e-15
       8158.7000   1.4366893e-15
       8160.0000   1.4602834e-15
       8161.3000   1.4475078e-15
       8162.6000   1.3587256e-15
       8163.9000   1.4113309e-15
       8165.2000   1.3654059e-15
       8166.5000   1.3207845e-15
       8167.8000   1.4584975e-15
       8169.1000   1.5387761e-15
       8170.4000   1.5084581e-15
       8171.7000   1.5059751e-15
       8173.0000   1.5295724e-15
       8174.3000   1.4620943e-15
       8175.6000   1.3551567e-15
       8176.9000   1.5668974e-15
       8178.2000   1.5951681e-15
       8179.5000   1.5863969e-15
       8180.8000   1.6392419e-15
       8182.1000   1.4529746e-15
       8183.4000   1.5513184e-15
       8184.7000   1.7723312e-15
       8186.0000   1.5479424e-15
       8187.3000   1.4676669e-15
       8188.6000   1.5357207e-15
       8189.9000   1.5888954e-15
       8191.2000   1.6456266e-15
       8192.5000   1.5850870e-15
       8193.8000   1.6123900e-15
       8195.1000   1.6138119e-15
       8196.4000   1.5678091e-15
       8197.7000   1.5821031e-15
       8199.0000   1.6194655e-15
       8200.3000   1.6335323e-15
       8201.6000   1.6290861e-15
       8202.9000   1.6531470e-15
       8204.2000   1.6428325e-15
       8205.5000   1.6214755e-15
       8206.8000   1.6183671e-15
       8208.1000   1.7449380e-15
       8209.4000   1.7374549e-15
       8210.7000   1.6280997e-15
       8212.0000   1.6614390e-15
       8213.3000   1.5828685e-15
       8214.6000   1.5220396e-15
       8215.9000   1.6753130e-15
       8217.2000   1.7624399e-15
       8218.5000   1.6987049e-15
       8219.8000   1.6031925e-15
       8221.1000   1.6603873e-15
       8222.4000   1.8147217e-15
       8223.7000   1.8785656e-15
       8225.0000   1.7040317e-15
       8226.3000   1.5235455e-15
       8227.6000   1.6259715e-15
       8228.9000   1.6531407e-15
       8230.2000   1.7036645e-15
       8231.5000   1.8112213e-15
       8232.8000   1.8131286e-15
       8234.1000   1.7183879e-15
       8235.4000   1.7716343e-15
       8236.7000   1.7435689e-15
       8238.0000   1.6718872e-15
       8239.3000   1.7896371e-15
       8240.6000   1.8643463e-15
       8241.9000   1.8718355e-15
       8243.2000   1.9574534e-15
       8244.5000   1.8451735e-15
       8245.8000   1.8654259e-15
       8247.1000   1.8318160e-15
       8248.4000   1.8933948e-15
       8249.7000   2.0023548e-15
       8251.0000   2.0054694e-15
       8252.3000   1.8220180e-15
       8253.6000   1.7094269e-15
       8254.9000   1.9774539e-15
       8256.2000   1.8692001e-15
       8257.5000   1.6937452e-15
       8258.8000   1.8259727e-15
       8260.1000   1.8189688e-15
       8261.4000   1.7582954e-15
       8262.7000   1.8225034e-15
       8264.0000   1.7562917e-15
       8265.3000   1.8517418e-15
       8266.6000   1.9455428e-15
       8267.9000   2.0084191e-15
       8269.2000   1.9428047e-15
       8270.5000   1.8145537e-15
       8271.8000   1.6945573e-15
       8273.1000   1.8656655e-15
       8274.4000   2.0672442e-15
       8275.7000   1.9905406e-15
       8277.0000   2.1442963e-15
       8278.3000   2.1274789e-15
       8279.6000   1.8929468e-15
       8280.9000   1.9997754e-15
       8282.2000   2.1677660e-15
       8283.5000   2.0940307e-15
       8284.8000   2.0114247e-15
       8286.1000   1.9751141e-15
       8287.4000   2.0181641e-15
       8288.7000   2.1406061e-15
       8290.0000   2.0743632e-15
       8291.3000   1.8925018e-15
       8292.6000   1.9429696e-15
       8293.9000   1.9364605e-15
       8295.2000   1.8706781e-15
       8296.5000   1.9979490e-15
       8297.8000   2.0132574e-15
       8299.1000   1.9989696e-15
       8300.4000   2.1938835e-15
       8301.7000   2.2304089e-15
       8303.0000   2.0785264e-15
       8304.3000   1.9721271e-15
       8305.6000   1.9361089e-15
       8306.9000   2.1595580e-15
       8308.2000   2.1367137e-15
       8309.5000   1.9166809e-15
       8310.8000   2.0275794e-15
       8312.1000   2.0500037e-15
       8313.4000   1.9277670e-15
       8314.7000   1.9870807e-15
       8316.0000   2.1075002e-15
       8317.3000   2.1004683e-15
       8318.6000   2.0792109e-15
       8319.9000   2.0966941e-15
       8321.2000   2.0686786e-15
       8322.5000   2.1948885e-15
       8323.8000   2.2724789e-15
       8325.1000   2.2276802e-15
       8326.4000   2.2252563e-15
       8327.7000   2.4055994e-15
       8329.0000   2.3183728e-15
       8330.3000   2.1196380e-15
       8331.6000   2.2330848e-15
       8332.9000   2.1087635e-15
       8334.2000   2.1059818e-15
       8335.5000   2.2846447e-15
       8336.8000   2.2789787e-15
       8338.1000   2.2636859e-15
       8339.4000   2.2100195e-15
       8340.7000   2.2804224e-15
       8342.0000   2.2473072e-15
       8343.3000   2.0407222e-15
       8344.6000   2.1876451e-15
       8345.9000   2.4153102e-15
       8347.2000   2.4346230e-15
       8348.5000   2.2689474e-15
       8349.8000   2.1547881e-15
       8351.1000   2.2850803e-15
       8352.4000   2.2107227e-15
       8353.7000   2.2432810e-15
       8355.0000   2.3777145e-15
       8356.3000   2.4458647e-15
       8357.6000   2.3441015e-15
       8358.9000   2.3157997e-15
       8360.2000   2.4848077e-15
       8361.5000   2.4621127e-15
       8362.8000   2.4144141e-15
       8364.1000   2.4153631e-15
       8365.4000   2.3610247e-15
       8366.7000   2.4398191e-15
       8368.0000   2.4698758e-15
       8369.3000   2.4416549e-15
       8370.6000   2.3416216e-15
       8371.9000   2.4440445e-15
       8373.2000   2.5511252e-15
       8374.5000   2.4559582e-15
       8375.8000   2.5176864e-15
       8377.1000   2.6225082e-15
       8378.4000   2.6545282e-15
       8379.7000   2.5914714e-15
       8381.0000   2.5436608e-15
       8382.3000   2.6080804e-15
       8383.6000   2.6034630e-15
       8384.9000   2.6233203e-15
       8386.2000   2.4629310e-15
       8387.5000   2.3956085e-15
       8388.8000   2.5328236e-15
       8390.1000   2.5330259e-15
       8391.4000   2.5737361e-15
       8392.7000   2.5638791e-15
       8394.0000   2.4139069e-15
       8395.3000   2.4030604e-15
       8396.6000   2.3493411e-15
       8397.9000   2.3344559e-15
       8399.2000   2.3791333e-15
       8400.5000   2.5124405e-15
       8401.8000   2.5205738e-15
       8403.1000   2.4395111e-15
       8404.4000   2.5667198e-15
       8405.7000   2.7440074e-15
       8407.0000   2.6395185e-15
       8408.3000   2.4541380e-15
       8409.6000   2.5084796e-15
       8410.9000   2.4900847e-15
       8412.2000   2.5008628e-15
       8413.5000   2.4765156e-15
       8414.8000   2.4855606e-15
       8416.1000   2.3867968e-15
       8417.4000   2.4218474e-15
       8418.7000   2.3161077e-15
       8420.0000   2.2439935e-15
       8421.3000   2.4135180e-15
       8422.6000   2.4491224e-15
       8423.9000   2.4666181e-15
       8425.2000   2.3350378e-15
       8426.5000   2.4469008e-15
       8427.8000   2.4352111e-15
       8429.1000   2.3930509e-15
       8430.4000   2.3442197e-15
       8431.7000   2.3974069e-15
       8433.0000   2.4294020e-15
       8434.3000   2.4628315e-15
       8435.6000   2.4864505e-15
       8436.9000   2.4630399e-15
       8438.2000   2.3798863e-15
       8439.5000   2.4066355e-15
       8440.8000   2.4435155e-15
       8442.1000   2.4235836e-15
       8443.4000   2.3516530e-15
       8444.7000   2.2898564e-15
       8446.0000   2.3008958e-15
       8447.3000   2.3403770e-15
       8448.6000   2.3550818e-15
       8449.9000   2.3406726e-15
       8451.2000   2.4377189e-15
       8452.5000   2.4785599e-15
       8453.8000   2.4266390e-15
       8455.1000   2.4377469e-15
       8456.4000   2.3994200e-15
       8457.7000   2.3889406e-15
       8459.0000   2.3781625e-15
       8460.3000   2.3069133e-15
       8461.6000   2.3188364e-15
       8462.9000   2.3268267e-15
       8464.2000   2.3412078e-15
       8465.5000   2.3469173e-15
       8466.8000   2.3777332e-15
       8468.1000   2.4176594e-15
       8469.4000   2.4926205e-15
       8470.7000   2.4943225e-15
       8472.0000   2.3524370e-15
       8473.3000   2.3411269e-15
       8474.6000   2.3800979e-15
       8475.9000   2.3372905e-15
       8477.2000   2.3304297e-15
       8478.5000   2.3266866e-15
       8479.8000   2.4317418e-15
       8481.1000   2.4754515e-15
       8482.4000   2.4999231e-15
       8483.7000   2.4626852e-15
       8485.0000   2.4293895e-15
       8486.3000   2.3395618e-15
       8487.6000   2.3212105e-15
       8488.9000   2.4029640e-15
       8490.2000   2.3452900e-15
       8491.5000   2.3470076e-15
       8492.8000   2.3941150e-15
       8494.1000   2.3501283e-15
       8495.4000   2.3342475e-15
       8496.7000   2.3310053e-15
       8498.0000   2.3134194e-15
       8499.3000   2.4051264e-15
       8500.6000   2.4057954e-15
       8501.9000   2.2823391e-15
       8503.2000   2.2532159e-15
       8504.5000   2.2810883e-15
       8505.8000   2.2952423e-15
       8507.1000   2.2625222e-15
       8508.4000   2.2272072e-15
       8509.7000   2.3146671e-15
       8511.0000   2.3254981e-15
       8512.3000   2.2110525e-15
       8513.6000   2.2830205e-15
       8514.9000   2.2576684e-15
       8516.2000   2.2965678e-15
       8517.5000   2.2726905e-15
       8518.8000   2.1791384e-15
       8520.1000   2.2781760e-15
       8521.4000   2.2925540e-15
       8522.7000   2.2755125e-15
       8524.0000   2.3613078e-15
       8525.3000   2.3248384e-15
       8526.6000   2.2340773e-15
       8527.9000   2.1524825e-15
       8529.2000   2.1962016e-15
       8530.5000   2.2673263e-15
       8531.8000   2.2682162e-15
       8533.1000   2.2569434e-15
       8534.4000   2.2559508e-15
       8535.7000   2.2333461e-15
       8537.0000   2.1699471e-15
       8538.3000   2.2321326e-15
       8539.6000   2.2928060e-15
       8540.9000   2.2771523e-15
       8542.2000   2.3042468e-15
       8543.5000   2.3703621e-15
       8544.8000   2.4352142e-15
       8546.1000   2.3938723e-15
       8547.4000   2.3482304e-15
       8548.7000   2.3016457e-15
       8550.0000   2.1362438e-15
       8551.3000   2.1182036e-15
       8552.6000   2.2017960e-15
       8553.9000   2.1502485e-15
       8555.2000   2.1081816e-15
       8556.5000   2.1781458e-15
       8557.8000   2.2620213e-15
       8559.1000   2.2779924e-15
       8560.4000   2.2963749e-15
       8561.7000   2.2085914e-15
       8563.0000   2.2387943e-15
       8564.3000   2.2987489e-15
       8565.6000   2.1553793e-15
       8566.9000   2.2146152e-15
       8568.2000   2.2118242e-15
       8569.5000   2.2192668e-15
       8570.8000   2.3159646e-15
       8572.1000   2.2374812e-15
       8573.4000   2.2647189e-15
       8574.7000   2.1231384e-15
       8576.0000   2.1385276e-15
       8577.3000   2.2509974e-15
       8578.6000   2.2160744e-15
       8579.9000   2.2126705e-15
       8581.2000   2.2469338e-15
       8582.5000   2.3599356e-15
       8583.8000   2.3576674e-15
       8585.1000   2.3088269e-15
       8586.4000   2.3809629e-15
       8587.7000   2.4320592e-15
       8589.0000   2.4416518e-15
       8590.3000   2.4121272e-15
       8591.6000   2.3131114e-15
       8592.9000   2.2253123e-15
       8594.2000   2.1713846e-15
       8595.5000   2.2622017e-15
       8596.8000   2.1856257e-15
       8598.1000   2.0942890e-15
       8599.4000   2.1768048e-15
       8600.7000   2.1499965e-15
       8602.0000   2.1315860e-15
       8603.3000   2.1779778e-15
       8604.6000   2.1576942e-15
       8605.9000   2.0856547e-15
       8607.2000   2.1208733e-15
       8608.5000   2.1510077e-15
       8609.8000   2.1336364e-15
       8611.1000   2.1428215e-15
       8612.4000   2.0744068e-15
       8613.7000   2.0328782e-15
       8615.0000   2.1032998e-15
       8616.3000   2.1465428e-15
       8617.6000   2.1399122e-15
       8618.9000   2.1555846e-15
       8620.2000   2.0215587e-15
       8621.5000   1.9050908e-15
       8622.8000   1.9731009e-15
       8624.1000   2.0252209e-15
       8625.4000   2.0611022e-15
       8626.7000   2.0415436e-15
       8628.0000   1.9974885e-15
       8629.3000   2.0612173e-15
       8630.6000   2.0735418e-15
       8631.9000   2.0623437e-15
       8633.2000   2.0508842e-15
       8634.5000   2.0872073e-15
       8635.8000   2.0144024e-15
       8637.1000   1.9814801e-15
       8638.4000   1.9610347e-15
       8639.7000   1.9310092e-15
       8641.0000   1.9760319e-15
       8642.3000   2.0088267e-15
       8643.6000   1.9535143e-15
       8644.9000   1.8822185e-15
       8646.2000   1.9600639e-15
       8647.5000   1.9981326e-15
       8648.8000   1.9572419e-15
       8650.1000   1.9837732e-15
       8651.4000   1.9936988e-15
       8652.7000   2.0867499e-15
       8654.0000   2.0772787e-15
       8655.3000   1.9565947e-15
       8656.6000   1.9084823e-15
       8657.9000   1.9090828e-15
       8659.2000   1.8389786e-15
       8660.5000   1.9348425e-15
       8661.8000   1.9949091e-15
       8663.1000   1.8082187e-15
       8664.4000   1.8266292e-15
       8665.7000   1.8924209e-15
       8667.0000   1.8808805e-15
       8668.3000   1.8652766e-15
       8669.6000   1.8670750e-15
       8670.9000   1.8286205e-15
       8672.2000   1.7016016e-15
       8673.5000   1.7387493e-15
       8674.8000   1.8278769e-15
       8676.1000   1.7724992e-15
       8677.4000   1.7948239e-15
       8678.7000   1.8704665e-15
       8680.0000   1.8589915e-15
       8681.3000   1.7818367e-15
       8682.6000   1.7791546e-15
       8683.9000   1.7602432e-15
       8685.2000   1.7611611e-15
       8686.5000   1.7777794e-15
       8687.8000   1.7161975e-15
       8689.1000   1.7101146e-15
       8690.4000   1.8091273e-15
       8691.7000   1.7734016e-15
       8693.0000   1.7373367e-15
       8694.3000   1.7893011e-15
       8695.6000   1.8050575e-15
       8696.9000   1.7661954e-15
       8698.2000   1.6779795e-15
       8699.5000   1.6890407e-15
       8700.8000   1.7844503e-15
       8702.1000   1.7970766e-15
       8703.4000   1.7578878e-15
       8704.7000   1.7847366e-15
       8706.0000   1.8418753e-15
       8707.3000   1.9947567e-15
       8708.6000   2.0155505e-15
       8709.9000   1.8565956e-15
       8711.2000   1.7455447e-15
       8712.5000   1.7400032e-15
       8713.8000   1.7463257e-15
       8715.1000   1.6891371e-15
       8716.4000   1.6842864e-15
       8717.7000   1.6844015e-15
       8719.0000   1.8009255e-15
       8720.3000   1.7613696e-15
       8721.6000   1.7048842e-15
       8722.9000   1.7417270e-15
       8724.2000   1.7542319e-15
       8725.5000   1.6216061e-15
       8726.8000   1.6032766e-15
       8728.1000   1.6377826e-15
       8729.4000   1.6943799e-15
       8730.7000   1.6306449e-15
       8732.0000   1.6341391e-15
       8733.3000   1.6585578e-15
       8734.6000   1.6674876e-15
       8735.9000   1.6341297e-15
       8737.2000   1.6620986e-15
       8738.5000   1.6820119e-15
       8739.8000   1.6104827e-15
       8741.1000   1.5768541e-15
       8742.4000   1.6603437e-15
       8743.7000   1.5673704e-15
       8745.0000   1.5129292e-15
       8746.3000   1.7091065e-15
       8747.6000   1.6578577e-15
       8748.9000   1.6995761e-15
       8750.2000   1.6972643e-15
       8751.5000   1.5414644e-15
       8752.8000   1.5017187e-15
       8754.1000   1.4677634e-15
       8755.4000   1.5314424e-15
       8756.7000   1.4914602e-15
       8758.0000   1.5515860e-15
       8759.3000   1.6090825e-15
       8760.6000   1.6446216e-15
       8761.9000   1.6054546e-15
       8763.2000   1.6210834e-15
       8764.5000   1.4484599e-15
       8765.8000   1.4771226e-15
       8767.1000   1.6299728e-15
       8768.4000   1.5369435e-15
       8769.7000   1.5019614e-15
       8771.0000   1.5981707e-15
       8772.3000   1.5479300e-15
       8773.6000   1.4534880e-15
       8774.9000   1.5345134e-15
       8776.2000   1.5040056e-15
       8777.5000   1.3881941e-15
       8778.8000   1.3967942e-15
       8780.1000   1.5126057e-15
       8781.4000   1.6105854e-15
       8782.7000   1.5098769e-15
       8784.0000   1.3836919e-15
       8785.3000   1.4534880e-15
       8786.6000   1.5052471e-15
       8787.9000   1.3841150e-15
       8789.2000   1.3839252e-15
       8790.5000   1.5138067e-15
       8791.8000   1.4953215e-15
       8793.1000   1.4407373e-15
       8794.4000   1.4241968e-15
       8795.7000   1.3968533e-15
       8797.0000   1.4853089e-15
       8798.3000   1.4595056e-15
       8799.6000   1.3783619e-15
       8800.9000   1.4310233e-15
       8802.2000   1.4205719e-15
       8803.5000   1.2965898e-15
       8804.8000   1.3262731e-15
       8806.1000   1.4208146e-15
       8807.4000   1.3354581e-15
       8808.7000   1.3410867e-15
       8810.0000   1.4233878e-15
       8811.3000   1.3664637e-15
       8812.6000   1.3806738e-15
       8813.9000   1.3920555e-15
       8815.2000   1.2487668e-15
       8816.5000   1.2645107e-15
       8817.8000   1.4360732e-15
       8819.1000   1.4380583e-15
       8820.4000   1.3574841e-15
       8821.7000   1.3959168e-15
       8823.0000   1.4291813e-15
       8824.3000   1.3194621e-15
       8825.6000   1.2831794e-15
       8826.9000   1.3414321e-15
       8828.2000   1.3635857e-15
       8829.5000   1.3732778e-15
       8830.8000   1.3635048e-15
       8832.1000   1.3811249e-15
       8833.4000   1.3607636e-15
       8834.7000   1.3380499e-15
       8836.0000   1.3706051e-15
       8837.3000   1.2958151e-15
       8838.6000   1.2864558e-15
       8839.9000   1.3174583e-15
       8841.2000   1.3810005e-15
       8842.5000   1.3555488e-15
       8843.8000   1.3446307e-15
       8845.1000   1.3482431e-15
       8846.4000   1.3348016e-15
       8847.7000   1.2465950e-15
       8849.0000   1.3045800e-15
       8850.3000   1.4117634e-15
       8851.6000   1.4505259e-15
       8852.9000   1.4590669e-15
       8854.2000   1.3943984e-15
       8855.5000   1.2964498e-15
       8856.8000   1.3007467e-15
       8858.1000   1.2920160e-15
       8859.4000   1.2039214e-15
       8860.7000   1.2143665e-15
       8862.0000   1.2597689e-15
       8863.3000   1.2588976e-15
       8864.6000   1.2801458e-15
       8865.9000   1.3309403e-15
       8867.2000   1.2410566e-15
       8868.5000   1.2677933e-15
       8869.8000   1.3158124e-15
       8871.1000   1.2103434e-15
       8872.4000   1.2066688e-15
       8873.7000   1.2868074e-15
       8875.0000   1.3786420e-15
       8876.3000   1.3075079e-15
       8877.6000   1.1660114e-15
       8878.9000   1.2872586e-15
       8880.2000   1.3025762e-15
       8881.5000   1.2456460e-15
       8882.8000   1.3262140e-15
       8884.1000   1.2999595e-15
       8885.4000   1.2257762e-15
       8886.7000   1.1912235e-15
       8888.0000   1.2387790e-15
       8889.3000   1.2584652e-15
       8890.6000   1.2081529e-15
       8891.9000   1.2918448e-15
       8893.2000   1.3219202e-15
       8894.5000   1.3048258e-15
       8895.8000   1.2562249e-15
       8897.1000   1.2655593e-15
       8898.4000   1.2881515e-15
       8899.7000   1.2180536e-15
       8901.0000   1.1425417e-15
       8902.3000   1.1852091e-15
       8903.6000   1.2919693e-15
       8904.9000   1.3022900e-15
       8906.2000   1.2783380e-15
       8907.5000   1.2667572e-15
       8908.8000   1.3806458e-15
       8910.1000   1.3973418e-15
       8911.4000   1.3085627e-15
       8912.7000   1.3436537e-15
       8914.0000   1.3939659e-15
       8915.3000   1.3541891e-15
       8916.6000   1.3158497e-15
       8917.9000   1.2851459e-15
       8919.2000   1.2615206e-15
       8920.5000   1.3193843e-15
       8921.8000   1.3383704e-15
       8923.1000   1.3286627e-15
       8924.4000   1.3130712e-15
       8925.7000   1.3264380e-15
       8927.0000   1.3203675e-15
       8928.3000   1.3301935e-15
       8929.6000   1.4247164e-15
       8930.9000   1.4984112e-15
       8932.2000   1.3929329e-15
       8933.5000   1.3457912e-15
       8934.8000   1.3866602e-15
       8936.1000   1.3940499e-15
       8937.4000   1.4656071e-15
       8938.7000   1.4423086e-15
       8940.0000   1.3741833e-15
       8941.3000   1.3530814e-15
       8942.6000   1.4382699e-15
       8943.9000   1.4658218e-15
       8945.2000   1.3756208e-15
       8946.5000   1.4930844e-15
       8947.8000   1.5573826e-15
       8949.1000   1.6333954e-15
       8950.4000   1.6099133e-15
       8951.7000   1.5498311e-15
       8953.0000   1.5580640e-15
       8954.3000   1.4552709e-15
       8955.6000   1.3555301e-15
       8956.9000   1.2891410e-15
       8958.2000   1.4325573e-15
       8959.5000   1.4901876e-15
       8960.8000   1.5145348e-15
       8962.1000   1.6027414e-15
       8963.4000   1.5641407e-15
       8964.7000   1.4592878e-15
       8966.0000   1.4394803e-15
       8967.3000   1.6001620e-15
       8968.6000   1.6238682e-15
       8969.9000   1.6294688e-15
       8971.2000   1.5983636e-15
       8972.5000   1.4019872e-15
       8973.8000   1.4609897e-15
       8975.1000   1.4910899e-15
       8976.4000   1.4533262e-15
       8977.7000   1.5203345e-15
       8979.0000   1.4796865e-15
       8980.3000   1.6240580e-15
       8981.6000   1.7677169e-15
       8982.9000   1.4410702e-15
       8984.2000   1.4039350e-15
       8985.5000   1.5228952e-15
       8986.8000   1.4530960e-15
       8988.1000   1.6500137e-15
       8989.4000   1.6365380e-15
       8990.7000   1.5757028e-15
       8992.0000   1.5781796e-15
       8993.3000   1.5024623e-15
       8994.6000   1.4543623e-15
       8995.9000   1.4667708e-15
       8997.2000   1.4822316e-15
       8998.5000   1.5565145e-15
       8999.8000   1.4881465e-15
       9001.1000   1.3944513e-15
       9002.4000   1.4529373e-15
       9003.7000   1.3157595e-15
       9005.0000   1.3266807e-15
       9006.3000   1.4581148e-15
       9007.6000   1.6993738e-15
       9008.9000   1.6450634e-15
       9010.2000   1.4534662e-15
       9011.5000   1.4631335e-15
       9012.8000   1.4979756e-15
       9014.1000   1.5162243e-15
       9015.4000   1.5102938e-15
       9016.7000   1.4950757e-15
       9018.0000   1.4616711e-15
       9019.3000   1.4247537e-15
       9020.6000   1.4213685e-15
       9021.9000   1.3817877e-15
       9023.2000   1.5370461e-15
       9024.5000   1.5960860e-15
       9025.8000   1.3617032e-15
       9027.1000   1.3174801e-15
       9028.4000   1.3079871e-15
       9029.7000   1.2822709e-15
       9031.0000   1.3318924e-15
       9032.3000   1.3359310e-15
       9033.6000   1.3713767e-15
       9034.9000   1.4293960e-15
       9036.2000   1.4980534e-15
       9037.5000   1.4829691e-15
       9038.8000   1.4100054e-15
       9040.1000   1.2796666e-15
       9041.4000   1.2859082e-15
       9042.7000   1.4674149e-15
       9044.0000   1.3871829e-15
       9045.3000   1.4480990e-15
       9046.6000   1.4648697e-15
       9047.9000   1.4966470e-15
       9049.2000   1.5880522e-15
       9050.5000   1.4970608e-15
       9051.8000   1.4593936e-15
       9053.1000   1.4551962e-15
       9054.4000   1.4331360e-15
       9055.7000   1.3091850e-15
       9057.0000   1.3856925e-15
       9058.3000   1.3452498e-15
       9059.6000   1.3509687e-15
       9060.9000   1.5854261e-15
       9062.2000   1.6274837e-15
       9063.5000   1.4630869e-15
       9064.8000   1.3487969e-15
       9066.1000   1.4736720e-15
       9067.4000   1.4807132e-15
       9068.7000   1.4838869e-15
       9070.0000   1.5442398e-15
       9071.3000   1.4641261e-15
       9072.6000   1.4684697e-15
       9073.9000   1.4527039e-15
       9075.2000   1.2771806e-15
       9076.5000   1.3097326e-15
       9077.8000   1.3531467e-15
       9079.1000   1.4079114e-15
       9080.4000   1.4729626e-15
       9081.7000   1.4625486e-15
       9083.0000   1.5522456e-15
       9084.3000   1.6101591e-15
       9085.6000   1.4834482e-15
       9086.9000   1.4399501e-15
       9088.2000   1.4237238e-15
       9089.5000   1.3018015e-15
       9090.8000   1.2606152e-15
       9092.1000   1.3734272e-15
       9093.4000   1.4583543e-15
       9094.7000   1.4172800e-15
       9096.0000   1.4143739e-15
       9097.3000   1.5138067e-15
       9098.6000   1.4222179e-15
       9099.9000   1.3784273e-15
       9101.2000   1.4556536e-15
       9102.5000   1.4322617e-15
       9103.8000   1.5424041e-15
       9105.1000   1.5141925e-15
       9106.4000   1.4464966e-15
       9107.7000   1.3902819e-15
       9109.0000   1.5364612e-15
       9110.3000   1.6940003e-15
       9111.6000   1.5653324e-15
       9112.9000   1.4989619e-15
       9114.2000   1.4809746e-15
       9115.5000   1.4438705e-15
       9116.8000   1.5485585e-15
       9118.1000   1.5952677e-15
       9119.4000   1.4117696e-15
       9120.7000   1.4131885e-15
       9122.0000   1.3866291e-15
       9123.3000   1.3807484e-15
       9124.6000   1.4617738e-15
       9125.9000   1.4816934e-15
       9127.2000   1.3992554e-15
       9128.5000   1.4770168e-15
       9129.8000   1.5995273e-15
       9131.1000   1.5949005e-15
       9132.4000   1.7608997e-15
       9133.7000   1.8223043e-15
       9135.0000   1.5323323e-15
       9136.3000   1.4331391e-15
       9137.6000   1.3823633e-15
       9138.9000   1.5759611e-15
       9140.2000   1.5274815e-15
       9141.5000   1.6564295e-15
       9142.8000   1.6269672e-15
       9144.1000   1.4359861e-15
       9145.4000   1.4261943e-15
       9146.7000   1.5012457e-15
       9148.0000   1.5457613e-15
       9149.3000   1.5041612e-15
