# wavelength(A)     flux(erg / s cm2 A)
       3200.1160   7.2328888e-16
       3201.3014   5.4582628e-16
       3202.4867   6.9133123e-16
       3203.6720   6.4720803e-16
       3204.8574   6.4912075e-16
       3206.0427   5.2532686e-16
       3207.2280   6.3096578e-16
       3208.4134   7.4789434e-16
       3209.5987   6.2994659e-16
       3210.7840   5.8246661e-16
       3211.9694   6.0118222e-16
       3213.1547   6.0006096e-16
       3214.3400   5.9731025e-16
       3215.5254   5.1115364e-16
       3216.7107   4.8338995e-16
       3217.8960   7.1473305e-16
       3219.0814   6.9899269e-16
       3220.2667   6.8783282e-16
       3221.4520   6.0254894e-16
       3222.6374   6.8608012e-16
       3223.8227   5.6751206e-16
       3225.0080   6.2520110e-16
       3226.1934   6.6246220e-16
       3227.3787   4.9445015e-16
       3228.5640   6.7677315e-16
       3229.7494   5.3316725e-16
       3230.9347   5.1818110e-16
       3232.1200   7.1059319e-16
       3233.3054   6.6624070e-16
       3234.4907   7.3282869e-16
       3235.6760   7.3555990e-16
       3236.8614   5.4274625e-16
       3238.0467   7.1047028e-16
       3239.2320   6.7107672e-16
       3240.4174   6.3816742e-16
       3241.6027   6.1921422e-16
       3242.7880   7.0119229e-16
       3243.9734   6.8131576e-16
       3245.1587   6.4526018e-16
       3246.3440   5.3926605e-16
       3247.5294   6.2869832e-16
       3248.7147   7.4027211e-16
       3249.9000   6.8363628e-16
       3251.0854   6.6819742e-16
       3252.2707   6.5494059e-16
       3253.4560   6.5078966e-16
       3254.6414   6.7568785e-16
       3255.8267   5.9621460e-16
       3257.0120   5.6404510e-16
       3258.1974   6.0643782e-16
       3259.3827   5.9007875e-16
       3260.5680   6.3347476e-16
       3261.7534   5.1652446e-16
       3262.9387   5.0986260e-16
       3264.1240   6.3473864e-16
       3265.3094   6.2062780e-16
       3266.4947   6.6600197e-16
       3267.6801   6.3137736e-16
       3268.8654   5.1649096e-16
       3270.0507   6.3377978e-16
       3271.2361   4.5145357e-16
       3272.4214   4.7767836e-16
       3273.6067   5.3016228e-16
       3274.7921   6.1895775e-16
       3275.9774   5.7621830e-16
       3277.1627   5.9853197e-16
       3278.3481   4.9563814e-16
       3279.5334   5.5219080e-16
       3280.7187   6.2067831e-16
       3281.9041   6.5681720e-16
       3283.0894   5.6132384e-16
       3284.2747   5.6336511e-16
       3285.4601   6.0315898e-16
       3286.6454   6.2275506e-16
       3287.8307   6.3076999e-16
       3289.0161   6.3072870e-16
       3290.2014   5.4269170e-16
       3291.3867   5.8180120e-16
       3292.5721   5.5037039e-16
       3293.7574   6.0882931e-16
       3294.9427   6.3044004e-16
       3296.1281   7.2625208e-16
       3297.3134   6.2093217e-16
       3298.4987   6.7969152e-16
       3299.6841   6.1701090e-16
       3300.8694   6.3193529e-16
       3302.0547   6.0168553e-16
       3303.2401   6.3968217e-16
       3304.4254   3.9402549e-16
       3305.6107   5.2885244e-16
       3306.7961   4.4388396e-16
       3307.9814   6.3917183e-16
       3309.1667   6.7736984e-16
       3310.3521   6.8693211e-16
       3311.5374   6.6736927e-16
       3312.7227   5.4851909e-16
       3313.9081   5.2369661e-16
       3315.0934   5.6106165e-16
       3316.2787   6.1258562e-16
       3317.4641   6.6633988e-16
       3318.6494   6.2303255e-16
       3319.8347   6.0593117e-16
       3321.0201   6.6621415e-16
       3322.2054   6.7157741e-16
       3323.3907   6.9061817e-16
       3324.5761   7.5250402e-16
       3325.7614   6.1027999e-16
       3326.9467   5.6727728e-16
       3328.1321   7.3901815e-16
       3329.3174   5.9157141e-16
       3330.5027   5.3297499e-16
       3331.6881   6.5162609e-16
       3332.8734   6.5698961e-16
       3334.0588   6.1051205e-16
       3335.2441   6.4420303e-16
       3336.4294   6.6832786e-16
       3337.6148   6.7681796e-16
       3338.8001   6.4624255e-16
       3339.9854   7.4221927e-16
       3341.1708   6.8940262e-16
       3342.3561   5.8392138e-16
       3343.5414   6.0880246e-16
       3344.7268   6.7322898e-16
       3345.9121   7.3910816e-16
       3347.0974   6.9810524e-16
       3348.2828   7.4618274e-16
       3349.4681   7.0884743e-16
       3350.6534   7.2097183e-16
       3351.8388   6.5979132e-16
       3353.0241   7.0194297e-16
       3354.2094   7.6560054e-16
       3355.3948   8.4851514e-16
       3356.5801   6.7773510e-16
       3357.7654   6.6619785e-16
       3358.9508   6.7917008e-16
       3360.1361   6.4219433e-16
       3361.3214   7.3753054e-16
       3362.5068   7.9534359e-16
       3363.6921   6.7226844e-16
       3364.8774   7.4011882e-16
       3366.0628   7.3230462e-16
       3367.2481   6.9654650e-16
       3368.4334   7.7770201e-16
       3369.6188   8.2349346e-16
       3370.8041   7.9077037e-16
       3371.9894   6.9522750e-16
       3373.1748   7.0495519e-16
       3374.3601   7.6252861e-16
       3375.5454   8.5925239e-16
       3376.7308   8.4608549e-16
       3377.9161   7.6941661e-16
       3379.1014   8.4109278e-16
       3380.2868   7.4279315e-16
       3381.4721   8.2201377e-16
       3382.6574   7.5397307e-16
       3383.8428   8.3547384e-16
       3385.0281   8.5765853e-16
       3386.2134   8.4619888e-16
       3387.3988   8.4023642e-16
       3388.5841   8.5633370e-16
       3389.7694   8.8948293e-16
       3390.9548   8.9278464e-16
       3392.1401   8.9549034e-16
       3393.3254   9.2801801e-16
       3394.5108   9.8469870e-16
       3395.6961   9.2244679e-16
       3396.8814   9.3243988e-16
       3398.0668   9.2135555e-16
       3399.2521   9.0673695e-16
       3400.4374   9.6930164e-16
       3401.6228   8.9138826e-16
       3402.8081   7.8984849e-16
       3403.9935   8.6843230e-16
       3405.1788   8.1329340e-16
       3406.3641   8.9688312e-16
       3407.5495   9.3504956e-16
       3408.7348   8.7678570e-16
       3409.9201   8.8418587e-16
       3411.1055   9.7157584e-16
       3412.2908   9.0742230e-16
       3413.4761   9.0618247e-16
       3414.6615   9.3550398e-16
       3415.8468   9.3366370e-16
       3417.0321   9.2909817e-16
       3418.2175   9.4791569e-16
       3419.4028   1.0118727e-15
       3420.5881   8.8590367e-16
       3421.7735   9.5366201e-16
       3422.9588   9.2026567e-16
       3424.1441   9.0813841e-16
       3425.3295   9.2631310e-16
       3426.5148   9.4793587e-16
       3427.7001   9.4133116e-16
       3428.8855   1.0332172e-15
       3430.0708   9.3076014e-16
       3431.2561   9.6251353e-16
       3432.4415   9.2579153e-16
       3433.6268   9.8931458e-16
       3434.8121   9.2580754e-16
       3435.9975   8.6907322e-16
       3437.1828   9.6801600e-16
       3438.3681   9.8789683e-16
       3439.5535   9.2361786e-16
       3440.7388   9.6083133e-16
       3441.9241   9.6749179e-16
       3443.1095   9.4755624e-16
       3444.2948   9.1254863e-16
       3445.4801   9.5102426e-16
       3446.6655   9.6735001e-16
       3447.8508   1.0215542e-15
       3449.0361   9.3276864e-16
       3450.2215   1.0454671e-15
       3451.4068   9.1598459e-16
       3452.5921   9.1155797e-16
       3453.7775   9.1914513e-16
       3454.9628   8.6014098e-16
       3456.1481   9.2492886e-16
       3457.3335   1.0329440e-15
       3458.5188   9.7124806e-16
       3459.7041   9.5212672e-16
       3460.8895   9.5210026e-16
       3462.0748   9.7782345e-16
       3463.2601   1.0092687e-15
       3464.4455   9.3492710e-16
       3465.6308   9.9378807e-16
       3466.8161   9.8975653e-16
       3468.0015   1.0122399e-15
       3469.1868   8.9365867e-16
       3470.3721   9.1444368e-16
       3471.5575   9.6516136e-16
       3472.7428   9.0961583e-16
       3473.9282   1.0437846e-15
       3475.1135   9.4077886e-16
       3476.2988   9.0825576e-16
       3477.4842   8.7827591e-16
       3478.6695   9.2230746e-16
       3479.8548   9.1253172e-16
       3481.0402   9.3080406e-16
       3482.2255   9.2777242e-16
       3483.4108   9.5278611e-16
       3484.5962   9.3495140e-16
       3485.7815   9.1502747e-16
       3486.9668   8.9494071e-16
       3488.1522   9.7165125e-16
       3489.3375   9.7548816e-16
       3490.5228   8.8545289e-16
       3491.7082   9.4489251e-16
       3492.8935   9.0749346e-16
       3494.0788   9.3468062e-16
       3495.2642   9.1741492e-16
       3496.4495   9.2579706e-16
       3497.6348   1.0153356e-15
       3498.8202   9.3361392e-16
       3500.0055   8.9648904e-16
       3501.1908   9.9290974e-16
       3502.3762   9.5895088e-16
       3503.5615   9.7431053e-16
       3504.7468   1.0077038e-15
       3505.9322   9.8284021e-16
       3507.1175   9.3479862e-16
       3508.3028   9.7173879e-16
       3509.4882   9.7452087e-16
       3510.6735   9.6761570e-16
       3511.8588   9.5582672e-16
       3513.0442   9.6597394e-16
       3514.2295   1.0049562e-15
       3515.4148   9.4097323e-16
       3516.6002   9.0720099e-16
       3517.7855   9.5109319e-16
       3518.9708   1.0069179e-15
       3520.1562   9.9679519e-16
       3521.3415   9.9831088e-16
       3522.5268   1.0198307e-15
       3523.7122   9.3488206e-16
       3524.8975   9.5864502e-16
       3526.0828   9.4810614e-16
       3527.2682   9.1631528e-16
       3528.4535   9.4172821e-16
       3529.6388   9.7697595e-16
       3530.8242   9.3847035e-16
       3532.0095   9.8115375e-16
       3533.1948   9.6926484e-16
       3534.3802   9.4822561e-16
       3535.5655   9.6974845e-16
       3536.7508   9.6066073e-16
       3537.9362   9.4129402e-16
       3539.1215   9.6938213e-16
       3540.3068   9.4608088e-16
       3541.4922   9.4779935e-16
       3542.6775   9.4236053e-16
       3543.8629   9.6096874e-16
       3545.0482   9.3214127e-16
       3546.2335   9.3971461e-16
       3547.4189   1.0081929e-15
       3548.6042   8.8820355e-16
       3549.7895   9.8214095e-16
       3550.9749   9.6952118e-16
       3552.1602   9.2558012e-16
       3553.3455   9.5449964e-16
       3554.5309   1.0177847e-15
       3555.7162   1.0229939e-15
       3556.9015   1.0560492e-15
       3558.0869   9.8511513e-16
       3559.2722   1.0086088e-15
       3560.4575   1.0058910e-15
       3561.6429   1.0784041e-15
       3562.8282   9.7444679e-16
       3564.0135   9.7894364e-16
       3565.1989   9.9682928e-16
       3566.3842   9.9221098e-16
       3567.5695   9.7854681e-16
       3568.7549   1.0171367e-15
       3569.9402   9.8880026e-16
       3571.1255   1.0266890e-15
       3572.3109   9.7266360e-16
       3573.4962   1.0336414e-15
       3574.6815   9.9504979e-16
       3575.8669   1.0205614e-15
       3577.0522   1.0071228e-15
       3578.2375   9.9204488e-16
       3579.4229   9.5647002e-16
       3580.6082   1.0086707e-15
       3581.7935   1.0720499e-15
       3582.9789   9.5524258e-16
       3584.1642   1.0807945e-15
       3585.3495   9.5556265e-16
       3586.5349   9.6220412e-16
       3587.7202   9.3608461e-16
       3588.9055   9.4151918e-16
       3590.0909   9.5606219e-16
       3591.2762   9.4811021e-16
       3592.4615   9.3209654e-16
       3593.6469   9.5208143e-16
       3594.8322   1.0053988e-15
       3596.0175   1.0194805e-15
       3597.2029   1.0248451e-15
       3598.3882   9.1111127e-16
       3599.5735   9.6264579e-16
       3600.7589   9.7654154e-16
       3601.9442   9.5111710e-16
       3603.1295   9.0810088e-16
       3604.3149   9.5773164e-16
       3605.5002   9.1712214e-16
       3606.6855   9.8273316e-16
       3607.8709   9.9320874e-16
       3609.0562   9.8585907e-16
       3610.2416   1.0203240e-15
       3611.4269   1.0069868e-15
       3612.6122   9.8172784e-16
       3613.7976   9.8051008e-16
       3614.9829   1.0063298e-15
       3616.1682   9.8103323e-16
       3617.3536   9.8368000e-16
       3618.5389   9.6970018e-16
       3619.7242   1.0055277e-15
       3620.9096   9.5428620e-16
       3622.0949   1.0355773e-15
       3623.2802   9.1273793e-16
       3624.4656   9.4727642e-16
       3625.6509   9.9199082e-16
       3626.8362   9.8287225e-16
       3628.0216   9.9381567e-16
       3629.2069   9.8627707e-16
       3630.3922   1.0050202e-15
       3631.5776   9.7905003e-16
       3632.7629   9.7866108e-16
       3633.9482   9.9220514e-16
       3635.1336   9.6459096e-16
       3636.3189   9.8595950e-16
       3637.5042   1.0192907e-15
       3638.6896   1.0085848e-15
       3639.8749   1.0168406e-15
       3641.0602   9.5549845e-16
       3642.2456   9.6345564e-16
       3643.4309   9.4894993e-16
       3644.6162   9.4098859e-16
       3645.8016   9.5881891e-16
       3646.9869   1.0320691e-15
       3648.1722   9.4761940e-16
       3649.3576   1.0009559e-15
       3650.5429   9.6761344e-16
       3651.7282   9.0470458e-16
       3652.9136   9.5925482e-16
       3654.0989   9.4669144e-16
       3655.2842   9.4659045e-16
       3656.4696   1.0149260e-15
       3657.6549   9.8943533e-16
       3658.8402   9.5812865e-16
       3660.0256   9.3660798e-16
       3661.2109   9.3804726e-16
       3662.3962   9.4175440e-16
       3663.5816   9.5009920e-16
       3664.7669   9.4334343e-16
       3665.9522   9.3353958e-16
       3667.1376   9.3327576e-16
       3668.3229   9.3790484e-16
       3669.5082   9.2328529e-16
       3670.6936   9.3074858e-16
       3671.8789   9.1957976e-16
       3673.0642   9.3118590e-16
       3674.2496   9.5342907e-16
       3675.4349   9.1839648e-16
       3676.6202   8.9558389e-16
       3677.8056   9.2773275e-16
       3678.9909   9.6746115e-16
       3680.1763   8.7992497e-16
       3681.3616   8.8836567e-16
       3682.5469   9.0345312e-16
       3683.7323   9.4498026e-16
       3684.9176   8.8002630e-16
       3686.1029   8.6159334e-16
       3687.2883   8.5888092e-16
       3688.4736   8.8475848e-16
       3689.6589   8.5345165e-16
       3690.8443   8.2714912e-16
       3692.0296   8.5493205e-16
       3693.2149   8.5448326e-16
       3694.4003   8.3263693e-16
       3695.5856   7.8480397e-16
       3696.7709   7.6548850e-16
       3697.9563   7.9950852e-16
       3699.1416   7.6426146e-16
       3700.3269   8.2482112e-16
       3701.5123   7.9866418e-16
       3702.6976   7.6377018e-16
       3703.8829   7.4092052e-16
       3705.0683   7.7341888e-16
       3706.2536   7.3261326e-16
       3707.4389   7.5547257e-16
       3708.6243   7.9158542e-16
       3709.8096   7.9615382e-16
       3710.9949   7.8086378e-16
       3712.1803   7.7592162e-16
       3713.3656   7.3111996e-16
       3714.5509   7.6330097e-16
       3715.7363   7.5270936e-16
       3716.9216   7.6834107e-16
       3718.1069   7.8195943e-16
       3719.2923   7.5688973e-16
       3720.4776   7.1744012e-16
       3721.6629   7.0986854e-16
       3722.8483   7.0819824e-16
       3724.0336   7.1042248e-16
       3725.2189   7.1527746e-16
       3726.4043   7.2531474e-16
       3727.5896   7.0724672e-16
       3728.7749   7.2968425e-16
       3729.9603   6.7592883e-16
       3731.1456   7.2088161e-16
       3732.3309   7.8445674e-16
       3733.5163   8.0629954e-16
       3734.7016   7.4486928e-16
       3735.8869   7.6194699e-16
       3737.0723   7.4188536e-16
       3738.2576   7.3221995e-16
       3739.4429   7.2090311e-16
       3740.6283   7.4258654e-16
       3741.8136   7.0469940e-16
       3742.9989   7.5572852e-16
       3744.1843   7.7184455e-16
       3745.3696   7.4882926e-16
       3746.5549   8.0301065e-16
       3747.7403   8.0646938e-16
       3748.9256   8.0711128e-16
       3750.1110   8.3701780e-16
       3751.2963   8.1886254e-16
       3752.4816   7.1782411e-16
       3753.6670   7.3013420e-16
       3754.8523   7.1993585e-16
       3756.0376   7.5824625e-16
       3757.2230   8.0970487e-16
       3758.4083   8.3931840e-16
       3759.5936   8.4455672e-16
       3760.7790   8.8301029e-16
       3761.9643   8.9515632e-16
       3763.1496   9.0048395e-16
       3764.3350   8.6048935e-16
       3765.5203   8.6962407e-16
       3766.7056   8.4293593e-16
       3767.8910   8.1259438e-16
       3769.0763   8.0149073e-16
       3770.2616   7.9321941e-16
       3771.4470   8.4131985e-16
       3772.6323   8.8839034e-16
       3773.8176   9.0036501e-16
       3775.0030   9.5802667e-16
       3776.1883   9.6146785e-16
       3777.3736   9.0401350e-16
       3778.5590   9.1984165e-16
       3779.7443   9.1094464e-16
       3780.9296   8.7569629e-16
       3782.1150   9.3490362e-16
       3783.3003   1.0053677e-15
       3784.4856   9.4327136e-16
       3785.6710   9.6337764e-16
       3786.8563   9.5127283e-16
       3788.0416   9.1421558e-16
       3789.2270   9.1631238e-16
       3790.4123   9.5030953e-16
       3791.5976   9.7275008e-16
       3792.7830   1.0511737e-15
       3793.9683   1.0675382e-15
       3795.1536   1.0608554e-15
       3796.3390   1.1046968e-15
       3797.5243   1.1172850e-15
       3798.7096   1.1694746e-15
       3799.8950   1.1162930e-15
       3801.0803   1.1740139e-15
       3802.2656   1.1665316e-15
       3803.4510   1.2112068e-15
       3804.6363   1.1584410e-15
       3805.8216   1.1973772e-15
       3807.0070   1.2622669e-15
       3808.1923   1.2246604e-15
       3809.3776   1.2278108e-15
       3810.5630   1.2688296e-15
       3811.7483   1.2433187e-15
       3812.9336   1.2647834e-15
       3814.1190   1.2396601e-15
       3815.3043   1.2394396e-15
       3816.4896   1.2387293e-15
       3817.6750   1.2773603e-15
       3818.8603   1.2683129e-15
       3820.0457   1.2532876e-15
       3821.2310   1.3294151e-15
       3822.4163   1.3355922e-15
       3823.6017   1.3335684e-15
       3824.7870   1.3605104e-15
       3825.9723   1.4230830e-15
       3827.1577   1.4763185e-15
       3828.3430   1.4738156e-15
       3829.5283   1.5219282e-15
       3830.7137   1.5446518e-15
       3831.8990   1.5883319e-15
       3833.0843   1.5505247e-15
       3834.2697   1.5105627e-15
       3835.4550   1.5325894e-15
       3836.6403   1.5690939e-15
       3837.8257   1.5783094e-15
       3839.0110   1.5645580e-15
       3840.1963   1.5185159e-15
       3841.3817   1.6175277e-15
       3842.5670   1.6652100e-15
       3843.7523   1.6153442e-15
       3844.9377   1.6477373e-15
       3846.1230   1.6590568e-15
       3847.3083   1.7057011e-15
       3848.4937   1.7122568e-15
       3849.6790   1.6765817e-15
       3850.8643   1.6695312e-15
       3852.0497   1.7042143e-15
       3853.2350   1.7073465e-15
       3854.4203   1.6635922e-15
       3855.6057   1.7146971e-15
       3856.7910   1.8224972e-15
       3857.9763   1.8232291e-15
       3859.1617   1.8483283e-15
       3860.3470   1.8615463e-15
       3861.5323   1.9256478e-15
       3862.7177   1.9721475e-15
       3863.9030   2.0007657e-15
       3865.0883   1.9777212e-15
       3866.2737   2.0225741e-15
       3867.4590   2.1047133e-15
       3868.6443   2.0659192e-15
       3869.8297   2.0663390e-15
       3871.0150   2.0740865e-15
       3872.2003   2.0863908e-15
       3873.3857   2.1030495e-15
       3874.5710   2.1012087e-15
       3875.7563   2.0987990e-15
       3876.9417   2.1884693e-15
       3878.1270   2.1621564e-15
       3879.3123   2.2097081e-15
       3880.4977   2.2279717e-15
       3881.6830   2.2217503e-15
       3882.8683   2.2383528e-15
       3884.0537   2.2382780e-15
       3885.2390   2.2405673e-15
       3886.4244   2.1808551e-15
       3887.6097   2.2227563e-15
       3888.7950   2.2217567e-15
       3889.9804   2.2707404e-15
       3891.1657   2.2905547e-15
       3892.3510   2.2581053e-15
       3893.5364   2.2923628e-15
       3894.7217   2.3752658e-15
       3895.9070   2.3717194e-15
       3897.0924   2.3600225e-15
       3898.2777   2.3644212e-15
       3899.4630   2.3673528e-15
       3900.6484   2.4104485e-15
       3901.8337   2.3443507e-15
       3903.0190   2.3845473e-15
       3904.2044   2.3541283e-15
       3905.3897   2.3671794e-15
       3906.5750   2.2596243e-15
       3907.7604   2.2767106e-15
       3908.9457   2.3082749e-15
       3910.1310   2.3641069e-15
       3911.3164   2.3876184e-15
       3912.5017   2.4388088e-15
       3913.6870   2.4797128e-15
       3914.8724   2.5253867e-15
       3916.0577   2.4734236e-15
       3917.2430   2.4802286e-15
       3918.4284   2.4980735e-15
       3919.6137   2.5439854e-15
       3920.7990   2.4990647e-15
       3921.9844   2.5555168e-15
       3923.1697   2.5758747e-15
       3924.3550   2.5658991e-15
       3925.5404   2.5492875e-15
       3926.7257   2.6276400e-15
       3927.9110   2.7047589e-15
       3929.0964   2.6299965e-15
       3930.2817   2.6233239e-15
       3931.4670   2.6202866e-15
       3932.6524   2.5240787e-15
       3933.8377   2.5179845e-15
       3935.0230   2.5572178e-15
       3936.2084   2.6673450e-15
       3937.3937   2.6619313e-15
       3938.5790   2.6995162e-15
       3939.7644   2.6775129e-15
       3940.9497   2.7245554e-15
       3942.1350   2.7334676e-15
       3943.3204   2.7459475e-15
       3944.5057   2.7673891e-15
       3945.6910   2.7525060e-15
       3946.8764   2.7469039e-15
       3948.0617   2.8017607e-15
       3949.2470   2.7143494e-15
       3950.4324   2.6450651e-15
       3951.6177   2.5646885e-15
       3952.8030   2.5740715e-15
       3953.9884   2.5408751e-15
       3955.1737   2.6738631e-15
       3956.3591   2.6687751e-15
       3957.5444   2.6771831e-15
       3958.7297   2.6761171e-15
       3959.9151   2.7610769e-15
       3961.1004   2.7470208e-15
       3962.2857   2.7898399e-15
       3963.4711   2.6504418e-15
       3964.6564   2.6829092e-15
       3965.8417   2.5908788e-15
       3967.0271   2.5875288e-15
       3968.2124   2.5412074e-15
       3969.3977   2.5194463e-15
       3970.5831   2.5397103e-15
       3971.7684   2.4997688e-15
       3972.9537   2.4980747e-15
       3974.1391   2.4912893e-15
       3975.3244   2.5092335e-15
       3976.5097   2.5203792e-15
       3977.6951   2.5175909e-15
       3978.8804   2.5017561e-15
       3980.0657   2.4670382e-15
       3981.2511   2.4465261e-15
       3982.4364   2.4191303e-15
       3983.6217   2.4184341e-15
       3984.8071   2.4398804e-15
       3985.9924   2.3957660e-15
       3987.1777   2.3076467e-15
       3988.3631   2.3304880e-15
       3989.5484   2.3203424e-15
       3990.7337   2.3360328e-15
       3991.9191   2.3850041e-15
       3993.1044   2.4231396e-15
       3994.2897   2.4482162e-15
       3995.4751   2.5103046e-15
       3996.6604   2.5280010e-15
       3997.8457   2.5291459e-15
       3999.0311   2.4614841e-15
       4000.2164   2.4932338e-15
       4001.4017   2.5276122e-15
       4002.5871   2.4686689e-15
       4003.7724   2.4637359e-15
       4004.9577   2.4920215e-15
       4006.1431   2.4387658e-15
       4007.3284   2.4580406e-15
       4008.5137   2.4837019e-15
       4009.6991   2.4741407e-15
       4010.8844   2.3845542e-15
       4012.0697   2.4527884e-15
       4013.2551   2.4527464e-15
       4014.4404   2.3691590e-15
       4015.6257   2.4311386e-15
       4016.8111   2.4402179e-15
       4017.9964   2.4002954e-15
       4019.1817   2.3151615e-15
       4020.3671   2.3663524e-15
       4021.5524   2.3723877e-15
       4022.7377   2.3071753e-15
       4023.9231   2.3369178e-15
       4025.1084   2.3157868e-15
       4026.2938   2.2749377e-15
       4027.4791   2.2783826e-15
       4028.6644   2.3157377e-15
       4029.8498   2.2793480e-15
       4031.0351   2.2591266e-15
       4032.2204   2.2846798e-15
       4033.4058   2.2331250e-15
       4034.5911   2.2235098e-15
       4035.7764   2.2314898e-15
       4036.9618   2.2291117e-15
       4038.1471   2.2137966e-15
       4039.3324   2.1950105e-15
       4040.5178   2.2112540e-15
       4041.7031   2.1616776e-15
       4042.8884   2.2261635e-15
       4044.0738   2.1953307e-15
       4045.2591   2.0969949e-15
       4046.4444   2.1254593e-15
       4047.6298   2.0959252e-15
       4048.8151   2.1488263e-15
       4050.0004   2.1150253e-15
       4051.1858   2.1045338e-15
       4052.3711   2.1043455e-15
       4053.5564   2.1133734e-15
       4054.7418   2.1085670e-15
       4055.9271   2.0202141e-15
       4057.1124   2.0375842e-15
       4058.2978   2.1131394e-15
       4059.4831   2.0999113e-15
       4060.6684   2.0616114e-15
       4061.8538   2.0392448e-15
       4063.0391   2.0068386e-15
       4064.2244   2.0262736e-15
       4065.4098   2.0001114e-15
       4066.5951   2.0061911e-15
       4067.7804   2.0133568e-15
       4068.9658   1.9756816e-15
       4070.1511   2.0488878e-15
       4071.3364   1.9691624e-15
       4072.5218   1.9794603e-15
       4073.7071   2.0311961e-15
       4074.8924   1.9995385e-15
       4076.0778   1.9487469e-15
       4077.2631   1.9841343e-15
       4078.4484   1.9522014e-15
       4079.6338   1.9788572e-15
       4080.8191   1.9373570e-15
       4082.0044   1.9239102e-15
       4083.1898   1.9532385e-15
       4084.3751   1.9559468e-15
       4085.5604   1.9605811e-15
       4086.7458   1.9428524e-15
       4087.9311   1.8853618e-15
       4089.1164   1.9268694e-15
       4090.3018   1.8972938e-15
       4091.4871   1.8983591e-15
       4092.6724   1.8581475e-15
       4093.8578   1.8802634e-15
       4095.0431   1.8518242e-15
       4096.2285   1.8560793e-15
       4097.4138   1.8636432e-15
       4098.5991   1.8648822e-15
       4099.7845   1.8526233e-15
       4100.9698   1.8570155e-15
       4102.1551   1.8303596e-15
       4103.3405   1.8297548e-15
       4104.5258   1.8048883e-15
       4105.7111   1.7371778e-15
       4106.8965   1.7831052e-15
       4108.0818   1.7593593e-15
       4109.2671   1.6897536e-15
       4110.4525   1.6989661e-15
       4111.6378   1.7172735e-15
       4112.8231   1.7139866e-15
       4114.0085   1.6629139e-15
       4115.1938   1.6109419e-15
       4116.3791   1.6434558e-15
       4117.5645   1.6383755e-15
       4118.7498   1.6015125e-15
       4119.9351   1.5607784e-15
       4121.1205   1.5345205e-15
       4122.3058   1.5498658e-15
       4123.4911   1.6117965e-15
       4124.6765   1.5741970e-15
       4125.8618   1.6144026e-15
       4127.0471   1.5878127e-15
       4128.2325   1.5847896e-15
       4129.4178   1.6388891e-15
       4130.6031   1.5807763e-15
       4131.7885   1.6120611e-15
       4132.9738   1.6441882e-15
       4134.1591   1.6330955e-15
       4135.3445   1.6174528e-15
       4136.5298   1.6337492e-15
       4137.7151   1.6275115e-15
       4138.9005   1.6372922e-15
       4140.0858   1.6401197e-15
       4141.2711   1.5785004e-15
       4142.4565   1.6021755e-15
       4143.6418   1.5704091e-15
       4144.8271   1.6599874e-15
       4146.0125   1.6172421e-15
       4147.1978   1.6320233e-15
       4148.3831   1.6229053e-15
       4149.5685   1.5693670e-15
       4150.7538   1.6046760e-15
       4151.9391   1.5802689e-15
       4153.1245   1.6116360e-15
       4154.3098   1.6051785e-15
       4155.4951   1.6493753e-15
       4156.6805   1.6417191e-15
       4157.8658   1.5909310e-15
       4159.0511   1.5976862e-15
       4160.2365   1.6276952e-15
       4161.4218   1.6026503e-15
       4162.6072   1.6069388e-15
       4163.7925   1.6169012e-15
       4164.9778   1.6111619e-15
       4166.1632   1.6508496e-15
       4167.3485   1.6540349e-15
       4168.5338   1.6435834e-15
       4169.7192   1.5977757e-15
       4170.9045   1.6039773e-15
       4172.0898   1.6054408e-15
       4173.2752   1.6443626e-15
       4174.4605   1.6134592e-15
       4175.6458   1.6349002e-15
       4176.8312   1.6504519e-15
       4178.0165   1.6586972e-15
       4179.2018   1.6694570e-15
       4180.3872   1.6541312e-15
       4181.5725   1.6333189e-15
       4182.7578   1.6030243e-15
       4183.9432   1.6470725e-15
       4185.1285   1.6608813e-15
       4186.3138   1.6766296e-15
       4187.4992   1.6119601e-15
       4188.6845   1.6460284e-15
       4189.8698   1.6373870e-15
       4191.0552   1.6564203e-15
       4192.2405   1.6296534e-15
       4193.4258   1.6273736e-15
       4194.6112   1.6454397e-15
       4195.7965   1.6677099e-15
       4196.9818   1.6451417e-15
       4198.1672   1.6451629e-15
       4199.3525   1.6549667e-15
       4200.5378   1.6271924e-15
       4201.7232   1.6664457e-15
       4202.9085   1.6481290e-15
       4204.0938   1.6634526e-15
       4205.2792   1.6257540e-15
       4206.4645   1.5891297e-15
       4207.6498   1.6878752e-15
       4208.8352   1.6452051e-15
       4210.0205   1.6238698e-15
       4211.2058   1.6178154e-15
       4212.3912   1.6143688e-15
       4213.5765   1.6402477e-15
       4214.7618   1.6620696e-15
       4215.9472   1.6462174e-15
       4217.1325   1.6549875e-15
       4218.3178   1.6295932e-15
       4219.5032   1.6103952e-15
       4220.6885   1.6303662e-15
       4221.8738   1.6193938e-15
       4223.0592   1.6049316e-15
       4224.2445   1.6350984e-15
       4225.4298   1.6237213e-15
       4226.6152   1.6675718e-15
       4227.8005   1.6426886e-15
       4228.9858   1.6262128e-15
       4230.1712   1.6086370e-15
       4231.3565   1.6317405e-15
       4232.5419   1.6084892e-15
       4233.7272   1.6298007e-15
       4234.9125   1.6139079e-15
       4236.0979   1.6134665e-15
       4237.2832   1.6130183e-15
       4238.4685   1.6363882e-15
       4239.6539   1.6180694e-15
       4240.8392   1.7133128e-15
       4242.0245   1.6530509e-15
       4243.2099   1.6445476e-15
       4244.3952   1.6564553e-15
       4245.5805   1.6192371e-15
       4246.7659   1.6435867e-15
       4247.9512   1.6080222e-15
       4249.1365   1.6285930e-15
       4250.3219   1.6651775e-15
       4251.5072   1.6647168e-15
       4252.6925   1.6796477e-15
       4253.8779   1.6703685e-15
       4255.0632   1.6152109e-15
       4256.2485   1.6719333e-15
       4257.4339   1.7026120e-15
       4258.6192   1.6873704e-15
       4259.8045   1.6989764e-15
       4260.9899   1.6643481e-15
       4262.1752   1.6402468e-15
       4263.3605   1.7081626e-15
       4264.5459   1.6811624e-15
       4265.7312   1.6803631e-15
       4266.9165   1.7191122e-15
       4268.1019   1.6995121e-15
       4269.2872   1.6741012e-15
       4270.4725   1.6843289e-15
       4271.6579   1.6765345e-15
       4272.8432   1.6426587e-15
       4274.0285   1.6485715e-15
       4275.2139   1.6394632e-15
       4276.3992   1.6901907e-15
       4277.5845   1.6377929e-15
       4278.7699   1.6807525e-15
       4279.9552   1.6509678e-15
       4281.1405   1.6628875e-15
       4282.3259   1.6553687e-15
       4283.5112   1.7037363e-15
       4284.6965   1.7511421e-15
       4285.8819   1.6999755e-15
       4287.0672   1.7060632e-15
       4288.2525   1.6889220e-15
       4289.4379   1.6949922e-15
       4290.6232   1.6481465e-15
       4291.8085   1.6785969e-15
       4292.9939   1.6839453e-15
       4294.1792   1.6750461e-15
       4295.3645   1.6895865e-15
       4296.5499   1.6520478e-15
       4297.7352   1.6715394e-15
       4298.9205   1.6421362e-15
       4300.1059   1.6676511e-15
       4301.2912   1.7232402e-15
       4302.4766   1.7151032e-15
       4303.6619   1.7200754e-15
       4304.8472   1.7486747e-15
       4306.0326   1.6828091e-15
       4307.2179   1.7020382e-15
       4308.4032   1.7341793e-15
       4309.5886   1.7179209e-15
       4310.7739   1.7206267e-15
       4311.9592   1.7107919e-15
       4313.1446   1.7254541e-15
       4314.3299   1.7096451e-15
       4315.5152   1.6531953e-15
       4316.7006   1.7144220e-15
       4317.8859   1.6608262e-15
       4319.0712   1.6743264e-15
       4320.2566   1.6251864e-15
       4321.4419   1.6597778e-15
       4322.6272   1.6436737e-15
       4323.8126   1.6474146e-15
       4324.9979   1.6837448e-15
       4326.1832   1.6722055e-15
       4327.3686   1.6417611e-15
       4328.5539   1.6774809e-15
       4329.7392   1.6236498e-15
       4330.9246   1.6248057e-15
       4332.1099   1.6183775e-15
       4333.2952   1.6303542e-15
       4334.4806   1.5969146e-15
       4335.6659   1.6486886e-15
       4336.8512   1.6075145e-15
       4338.0366   1.6607300e-15
       4339.2219   1.6619842e-15
       4340.4072   1.6225156e-15
       4341.5926   1.6500483e-15
       4342.7779   1.6683380e-15
       4343.9632   1.6523856e-15
       4345.1486   1.6493989e-15
       4346.3339   1.6186611e-15
       4347.5192   1.6187545e-15
       4348.7046   1.6142310e-15
       4349.8899   1.6449426e-15
       4351.0752   1.6347908e-15
       4352.2606   1.6126199e-15
       4353.4459   1.6463190e-15
       4354.6312   1.5900814e-15
       4355.8166   1.6244799e-15
       4357.0019   1.5749366e-15
       4358.1872   1.5742967e-15
       4359.3726   1.5896029e-15
       4360.5579   1.5596762e-15
       4361.7432   1.5708069e-15
       4362.9286   1.6097196e-15
       4364.1139   1.6112703e-15
       4365.2992   1.6134850e-15
       4366.4846   1.6086431e-15
       4367.6699   1.6083188e-15
       4368.8552   1.6178873e-15
       4370.0406   1.6217141e-15
       4371.2259   1.6306897e-15
       4372.4113   1.6610041e-15
       4373.5966   1.6626764e-15
       4374.7819   1.6780178e-15
       4375.9673   1.6757625e-15
       4377.1526   1.6687567e-15
       4378.3379   1.7020422e-15
       4379.5233   1.7142617e-15
       4380.7086   1.7324663e-15
       4381.8939   1.7734074e-15
       4383.0793   1.7132924e-15
       4384.2646   1.6763470e-15
       4385.4499   1.7035778e-15
       4386.6353   1.6908971e-15
       4387.8206   1.7344292e-15
       4389.0059   1.7446706e-15
       4390.1913   1.7341518e-15
       4391.3766   1.7529960e-15
       4392.5619   1.7506496e-15
       4393.7473   1.7518898e-15
       4394.9326   1.7730312e-15
       4396.1179   1.7820511e-15
       4397.3033   1.7553709e-15
       4398.4886   1.7914810e-15
       4399.6739   1.8151150e-15
       4400.8593   1.8348256e-15
       4402.0446   1.8435555e-15
       4403.2299   1.8231514e-15
       4404.4153   1.8644301e-15
       4405.6006   1.8627213e-15
       4406.7859   1.8541453e-15
       4407.9713   1.8962609e-15
       4409.1566   1.8889411e-15
       4410.3419   1.8404577e-15
       4411.5273   1.8438348e-15
       4412.7126   1.9296419e-15
       4413.8979   1.9235590e-15
       4415.0833   1.9331271e-15
       4416.2686   1.9276655e-15
       4417.4539   1.9943117e-15
       4418.6393   2.0094905e-15
       4419.8246   1.9943907e-15
       4421.0099   2.0507970e-15
       4422.1953   2.0445357e-15
       4423.3806   2.0536232e-15
       4424.5659   2.0576316e-15
       4425.7513   2.0438806e-15
       4426.9366   2.0848976e-15
       4428.1219   2.1248188e-15
       4429.3073   2.1242272e-15
       4430.4926   2.1444937e-15
       4431.6779   2.1210177e-15
       4432.8633   2.1412653e-15
       4434.0486   2.1594001e-15
       4435.2339   2.2255328e-15
       4436.4193   2.2454155e-15
       4437.6046   2.2272809e-15
       4438.7900   2.2181770e-15
       4439.9753   2.3024912e-15
       4441.1606   2.3017162e-15
       4442.3460   2.2865937e-15
       4443.5313   2.3176253e-15
       4444.7166   2.2908626e-15
       4445.9020   2.3260559e-15
       4447.0873   2.3705411e-15
       4448.2726   2.3547251e-15
       4449.4580   2.3141255e-15
       4450.6433   2.3617472e-15
       4451.8286   2.4262021e-15
       4453.0140   2.4270141e-15
       4454.1993   2.4268697e-15
       4455.3846   2.4474761e-15
       4456.5700   2.4421084e-15
       4457.7553   2.4564911e-15
       4458.9406   2.5209209e-15
       4460.1260   2.4637331e-15
       4461.3113   2.5293424e-15
       4462.4966   2.5579022e-15
       4463.6820   2.5737171e-15
       4464.8673   2.5542337e-15
       4466.0526   2.5755793e-15
       4467.2380   2.6024382e-15
       4468.4233   2.6429355e-15
       4469.6086   2.6552381e-15
       4470.7940   2.6663145e-15
       4471.9793   2.6760608e-15
       4473.1646   2.7249218e-15
       4474.3500   2.7761339e-15
       4475.5353   2.7552564e-15
       4476.7206   2.8019398e-15
       4477.9060   2.8481661e-15
       4479.0913   2.8049927e-15
       4480.2766   2.8440493e-15
       4481.4620   2.8420215e-15
       4482.6473   2.8470561e-15
       4483.8326   2.9163700e-15
       4485.0180   2.8882751e-15
       4486.2033   2.9461413e-15
       4487.3886   2.9445868e-15
       4488.5740   2.9741872e-15
       4489.7593   3.0133506e-15
       4490.9446   3.0297710e-15
       4492.1300   3.0169605e-15
       4493.3153   2.9970976e-15
       4494.5006   3.0470445e-15
       4495.6860   3.1030411e-15
       4496.8713   3.1098295e-15
       4498.0566   3.1243768e-15
       4499.2420   3.1411427e-15
       4500.4273   3.1448047e-15
       4501.6126   3.1491973e-15
       4502.7980   3.1821653e-15
       4503.9833   3.1972326e-15
       4505.1686   3.2404562e-15
       4506.3540   3.3198484e-15
       4507.5393   3.3086210e-15
       4508.7247   3.3765059e-15
       4509.9100   3.3489211e-15
       4511.0953   3.3931605e-15
       4512.2807   3.4578949e-15
       4513.4660   3.5173753e-15
       4514.6513   3.5484654e-15
       4515.8367   3.5525433e-15
       4517.0220   3.6021427e-15
       4518.2073   3.6972891e-15
       4519.3927   3.6396871e-15
       4520.5780   3.7099786e-15
       4521.7633   3.7127630e-15
       4522.9487   3.7184729e-15
       4524.1340   3.7243604e-15
       4525.3193   3.8006068e-15
       4526.5047   3.8370302e-15
       4527.6900   3.8896117e-15
       4528.8753   3.9000533e-15
       4530.0607   3.8571800e-15
       4531.2460   3.9238305e-15
       4532.4313   3.9525241e-15
       4533.6167   3.9745673e-15
       4534.8020   3.9590952e-15
       4535.9873   4.0052730e-15
       4537.1727   4.0052338e-15
       4538.3580   4.0433121e-15
       4539.5433   4.0699202e-15
       4540.7287   4.0470762e-15
       4541.9140   4.0739009e-15
       4543.0993   4.0726299e-15
       4544.2847   4.0393830e-15
       4545.4700   4.1348023e-15
       4546.6553   4.1326211e-15
       4547.8407   4.0809770e-15
       4549.0260   4.1267879e-15
       4550.2113   4.1513755e-15
       4551.3967   4.1200456e-15
       4552.5820   4.1587633e-15
       4553.7673   4.1652344e-15
       4554.9527   4.1831877e-15
       4556.1380   4.1743146e-15
       4557.3233   4.1479102e-15
       4558.5087   4.1937389e-15
       4559.6940   4.1980126e-15
       4560.8793   4.2190689e-15
       4562.0647   4.2152660e-15
       4563.2500   4.2171712e-15
       4564.4353   4.1946800e-15
       4565.6207   4.2397090e-15
       4566.8060   4.1771691e-15
       4567.9913   4.2747158e-15
       4569.1767   4.3311501e-15
       4570.3620   4.3418309e-15
       4571.5473   4.2925686e-15
       4572.7327   4.3089020e-15
       4573.9180   4.3509687e-15
       4575.1033   4.2791347e-15
       4576.2887   4.3120149e-15
       4577.4740   4.2563430e-15
       4578.6594   4.2481031e-15
       4579.8447   4.2597212e-15
       4581.0300   4.2925930e-15
       4582.2154   4.2728647e-15
       4583.4007   4.2921179e-15
       4584.5860   4.2339613e-15
       4585.7714   4.2650320e-15
       4586.9567   4.2869147e-15
       4588.1420   4.2125905e-15
       4589.3274   4.2496212e-15
       4590.5127   4.2299073e-15
       4591.6980   4.1588605e-15
       4592.8834   4.2102570e-15
       4594.0687   4.1852047e-15
       4595.2540   4.2359149e-15
       4596.4394   4.2065764e-15
       4597.6247   4.1875752e-15
       4598.8100   4.1606600e-15
       4599.9954   4.1994214e-15
       4601.1807   4.2357151e-15
       4602.3660   4.2063874e-15
       4603.5514   4.1104889e-15
       4604.7367   4.1282035e-15
       4605.9220   4.1031477e-15
       4607.1074   4.0741880e-15
       4608.2927   4.0791135e-15
       4609.4780   4.0639577e-15
       4610.6634   4.1424554e-15
       4611.8487   4.1349085e-15
       4613.0340   4.1058795e-15
       4614.2194   4.1408498e-15
       4615.4047   4.0395856e-15
       4616.5900   4.0320950e-15
       4617.7754   4.0696595e-15
       4618.9607   4.0601321e-15
       4620.1460   4.0361870e-15
       4621.3314   4.0227751e-15
       4622.5167   3.9744093e-15
       4623.7020   3.9792987e-15
       4624.8874   3.9727633e-15
       4626.0727   3.9300502e-15
       4627.2580   3.9188567e-15
       4628.4434   3.9537932e-15
       4629.6287   3.9154116e-15
       4630.8140   3.8245117e-15
       4631.9994   3.9148728e-15
       4633.1847   3.8504379e-15
       4634.3700   3.7666361e-15
       4635.5554   3.7336645e-15
       4636.7407   3.7505103e-15
       4637.9260   3.7676115e-15
       4639.1114   3.7419074e-15
       4640.2967   3.6895227e-15
       4641.4820   3.7437446e-15
       4642.6674   3.7125523e-15
       4643.8527   3.6330457e-15
       4645.0380   3.6362779e-15
       4646.2234   3.6145163e-15
       4647.4087   3.6930734e-15
       4648.5941   3.6772627e-15
       4649.7794   3.6143556e-15
       4650.9647   3.6156726e-15
       4652.1501   3.5462691e-15
       4653.3354   3.5360971e-15
       4654.5207   3.5510079e-15
       4655.7061   3.5312208e-15
       4656.8914   3.5068636e-15
       4658.0767   3.4998473e-15
       4659.2621   3.5378495e-15
       4660.4474   3.4463678e-15
       4661.6327   3.4459350e-15
       4662.8181   3.4242005e-15
       4664.0034   3.4763607e-15
       4665.1887   3.4079409e-15
       4666.3741   3.4621229e-15
       4667.5594   3.4341079e-15
       4668.7447   3.3706773e-15
       4669.9301   3.4555213e-15
       4671.1154   3.3442506e-15
       4672.3007   3.3371409e-15
       4673.4861   3.3387024e-15
       4674.6714   3.3527469e-15
       4675.8567   3.3449581e-15
       4677.0421   3.3478660e-15
       4678.2274   3.3223718e-15
       4679.4127   3.2745380e-15
       4680.5981   3.2288904e-15
       4681.7834   3.2521865e-15
       4682.9687   3.2772318e-15
       4684.1541   3.2396158e-15
       4685.3394   3.1954361e-15
       4686.5247   3.1355963e-15
       4687.7101   3.1562237e-15
       4688.8954   3.1290201e-15
       4690.0807   3.1135737e-15
       4691.2661   3.1259978e-15
       4692.4514   3.1171480e-15
       4693.6367   3.0994559e-15
       4694.8221   3.1038164e-15
       4696.0074   3.1219060e-15
       4697.1927   3.1043105e-15
       4698.3781   3.0828061e-15
       4699.5634   3.0599032e-15
       4700.7487   3.0308836e-15
       4701.9341   2.9682525e-15
       4703.1194   2.9760226e-15
       4704.3047   3.0036073e-15
       4705.4901   2.9781398e-15
       4706.6754   2.9994036e-15
       4707.8607   2.9535450e-15
       4709.0461   2.8788217e-15
       4710.2314   2.9438718e-15
       4711.4167   2.9341847e-15
       4712.6021   2.9327506e-15
       4713.7874   2.9029748e-15
       4714.9727   2.9065687e-15
       4716.1581   2.8723979e-15
       4717.3434   2.8982227e-15
       4718.5288   2.8573601e-15
       4719.7141   2.8273752e-15
       4720.8994   2.8141560e-15
       4722.0848   2.7598272e-15
       4723.2701   2.8313023e-15
       4724.4554   2.7802979e-15
       4725.6408   2.7836063e-15
       4726.8261   2.7984838e-15
       4728.0114   2.7668436e-15
       4729.1968   2.7557872e-15
       4730.3821   2.7536443e-15
       4731.5674   2.7260139e-15
       4732.7528   2.7215724e-15
       4733.9381   2.7265455e-15
       4735.1234   2.7037187e-15
       4736.3088   2.6912056e-15
       4737.4941   2.6594021e-15
       4738.6794   2.6936954e-15
       4739.8648   2.6335506e-15
       4741.0501   2.6203528e-15
       4742.2354   2.6615579e-15
       4743.4208   2.6623455e-15
       4744.6061   2.6778841e-15
       4745.7914   2.6568088e-15
       4746.9768   2.6565511e-15
       4748.1621   2.6780147e-15
       4749.3474   2.6225314e-15
       4750.5328   2.6228756e-15
       4751.7181   2.6454331e-15
       4752.9034   2.6066958e-15
       4754.0888   2.6232266e-15
       4755.2741   2.6201564e-15
       4756.4594   2.6859263e-15
       4757.6448   2.6659865e-15
       4758.8301   2.6546688e-15
       4760.0154   2.6447107e-15
       4761.2008   2.6776459e-15
       4762.3861   2.6981263e-15
       4763.5714   2.6538639e-15
       4764.7568   2.6864270e-15
       4765.9421   2.6683925e-15
       4767.1274   2.7147798e-15
       4768.3128   2.6762952e-15
       4769.4981   2.6483878e-15
       4770.6834   2.6489108e-15
       4771.8688   2.6539203e-15
       4773.0541   2.6648437e-15
       4774.2394   2.6561919e-15
       4775.4248   2.6559094e-15
       4776.6101   2.6195150e-15
       4777.7954   2.6094047e-15
       4778.9808   2.5668082e-15
       4780.1661   2.6149956e-15
       4781.3514   2.6250572e-15
       4782.5368   2.5958078e-15
       4783.7221   2.5854021e-15
       4784.9075   2.6240511e-15
       4786.0928   2.6309247e-15
       4787.2781   2.6039358e-15
       4788.4635   2.5784172e-15
       4789.6488   2.5767927e-15
       4790.8341   2.5978517e-15
       4792.0195   2.5720349e-15
       4793.2048   2.5770654e-15
       4794.3901   2.5769169e-15
       4795.5755   2.5805703e-15
       4796.7608   2.5586295e-15
       4797.9461   2.5572571e-15
       4799.1315   2.5288174e-15
       4800.3168   2.5580330e-15
       4801.5021   2.5670715e-15
       4802.6875   2.5327751e-15
       4803.8728   2.5787658e-15
       4805.0581   2.5381232e-15
       4806.2435   2.5139518e-15
       4807.4288   2.5555110e-15
       4808.6141   2.5263458e-15
       4809.7995   2.5291227e-15
       4810.9848   2.5078295e-15
       4812.1701   2.5616617e-15
       4813.3555   2.5166750e-15
       4814.5408   2.5116587e-15
       4815.7261   2.5105905e-15
       4816.9115   2.5116619e-15
       4818.0968   2.5016015e-15
       4819.2821   2.5124043e-15
       4820.4675   2.5140135e-15
       4821.6528   2.5115084e-15
       4822.8381   2.5046565e-15
       4824.0235   2.5109799e-15
       4825.2088   2.5106138e-15
       4826.3941   2.5315970e-15
       4827.5795   2.5353192e-15
       4828.7648   2.5337291e-15
       4829.9501   2.5341489e-15
       4831.1355   2.5201501e-15
       4832.3208   2.5552376e-15
       4833.5061   2.5172893e-15
       4834.6915   2.5595948e-15
       4835.8768   2.5352050e-15
       4837.0621   2.5791223e-15
       4838.2475   2.5666683e-15
       4839.4328   2.6196292e-15
       4840.6181   2.6270288e-15
       4841.8035   2.6428282e-15
       4842.9888   2.5950688e-15
       4844.1741   2.6073071e-15
       4845.3595   2.6625588e-15
       4846.5448   2.6541952e-15
       4847.7301   2.6569812e-15
       4848.9155   2.6588927e-15
       4850.1008   2.6802725e-15
       4851.2861   2.7134536e-15
       4852.4715   2.7007834e-15
       4853.6568   2.7366179e-15
       4854.8422   2.7647848e-15
       4856.0275   2.6987035e-15
       4857.2128   2.7618059e-15
       4858.3982   2.7605570e-15
       4859.5835   2.7810840e-15
       4860.7688   2.7730893e-15
       4861.9542   2.7739676e-15
       4863.1395   2.7988205e-15
       4864.3248   2.8291401e-15
       4865.5102   2.8469742e-15
       4866.6955   2.8509834e-15
       4867.8808   2.8777652e-15
       4869.0662   2.9099797e-15
       4870.2515   2.8988730e-15
       4871.4368   2.9297272e-15
       4872.6222   2.9014392e-15
       4873.8075   2.9159685e-15
       4874.9928   2.9721765e-15
       4876.1782   2.9167859e-15
       4877.3635   2.9641888e-15
       4878.5488   2.9621356e-15
       4879.7342   2.9883478e-15
       4880.9195   3.0035110e-15
       4882.1048   2.9349070e-15
       4883.2902   3.0027596e-15
       4884.4755   2.9656567e-15
       4885.6608   3.0944896e-15
       4886.8462   3.1680763e-15
       4888.0315   3.1191479e-15
       4889.2168   3.0630672e-15
       4890.4022   3.0759521e-15
       4891.5875   3.0951344e-15
       4892.7728   3.0686182e-15
       4893.9582   3.1252809e-15
       4895.1435   3.0413920e-15
       4896.3288   3.0425721e-15
       4897.5142   3.0775334e-15
       4898.6995   3.0592496e-15
       4899.8848   3.0614683e-15
       4901.0702   3.0981052e-15
       4902.2555   3.1003693e-15
       4903.4408   3.1150647e-15
       4904.6262   3.1172389e-15
       4905.8115   3.1022911e-15
       4906.9968   3.1088078e-15
       4908.1822   3.1441957e-15
       4909.3675   3.0975155e-15
       4910.5528   3.1122402e-15
       4911.7382   3.1494939e-15
       4912.9235   3.1381272e-15
       4914.1088   3.0387729e-15
       4915.2942   3.1232503e-15
       4916.4795   3.0893561e-15
       4917.6648   3.0911551e-15
       4918.8502   3.0840988e-15
       4920.0355   3.0922472e-15
       4921.2208   3.1008187e-15
       4922.4062   3.0998301e-15
       4923.5915   3.0650492e-15
       4924.7769   3.0577119e-15
       4925.9622   3.0740038e-15
       4927.1475   3.0569255e-15
       4928.3329   3.0388801e-15
       4929.5182   2.9896365e-15
       4930.7035   2.9610000e-15
       4931.8889   2.9652048e-15
       4933.0742   2.8671057e-15
       4934.2595   2.9053899e-15
       4935.4449   2.8934801e-15
       4936.6302   2.8696969e-15
       4937.8155   2.8721428e-15
       4939.0009   2.8526106e-15
       4940.1862   2.8273793e-15
       4941.3715   2.8021095e-15
       4942.5569   2.7814650e-15
       4943.7422   2.7318113e-15
       4944.9275   2.6979638e-15
       4946.1129   2.6794824e-15
       4947.2982   2.6692089e-15
       4948.4835   2.6311082e-15
       4949.6689   2.6368597e-15
       4950.8542   2.6380676e-15
       4952.0395   2.6776930e-15
       4953.2249   2.5834082e-15
       4954.4102   2.5702259e-15
       4955.5955   2.5736274e-15
       4956.7809   2.5905722e-15
       4957.9662   2.5365672e-15
       4959.1515   2.5311540e-15
       4960.3369   2.4913294e-15
       4961.5222   2.4745597e-15
       4962.7075   2.4994506e-15
       4963.8929   2.4703708e-15
       4965.0782   2.4730617e-15
       4966.2635   2.4607595e-15
       4967.4489   2.4745706e-15
       4968.6342   2.4828293e-15
       4969.8195   2.4500551e-15
       4971.0049   2.4384715e-15
       4972.1902   2.4763429e-15
       4973.3755   2.4384066e-15
       4974.5609   2.4351578e-15
       4975.7462   2.3992297e-15
       4976.9315   2.4100502e-15
       4978.1169   2.4302928e-15
       4979.3022   2.4349893e-15
       4980.4875   2.4246891e-15
       4981.6729   2.4088383e-15
       4982.8582   2.4104880e-15
       4984.0435   2.4323376e-15
       4985.2289   2.3861537e-15
       4986.4142   2.4039729e-15
       4987.5995   2.3702685e-15
       4988.7849   2.3968271e-15
       4989.9702   2.3629968e-15
       4991.1555   2.3620040e-15
       4992.3409   2.4121817e-15
       4993.5262   2.3866646e-15
       4994.7116   2.3673962e-15
       4995.8969   2.3611333e-15
       4997.0822   2.3916994e-15
       4998.2676   2.4039828e-15
       4999.4529   2.4084567e-15
       5000.6382   2.4449999e-15
       5001.8236   2.3940966e-15
       5003.0089   2.3988847e-15
       5004.1942   2.3966604e-15
       5005.3796   2.4265365e-15
       5006.5649   2.3848819e-15
       5007.7502   2.4132130e-15
       5008.9356   2.4788431e-15
       5010.1209   2.4711609e-15
       5011.3062   2.4545775e-15
       5012.4916   2.4474290e-15
       5013.6769   2.4695234e-15
       5014.8622   2.4660136e-15
       5016.0476   2.4516183e-15
       5017.2329   2.3953121e-15
       5018.4182   2.3988775e-15
       5019.6036   2.4857467e-15
       5020.7889   2.5005047e-15
       5021.9742   2.4696627e-15
       5023.1596   2.4581899e-15
       5024.3449   2.5011367e-15
       5025.5302   2.5019509e-15
       5026.7156   2.4442007e-15
       5027.9009   2.5108889e-15
       5029.0862   2.4349901e-15
       5030.2716   2.4955549e-15
       5031.4569   2.4694420e-15
       5032.6422   2.4902868e-15
       5033.8276   2.5359857e-15
       5035.0129   2.5252967e-15
       5036.1982   2.5054431e-15
       5037.3836   2.5006729e-15
       5038.5689   2.5141325e-15
       5039.7542   2.5331191e-15
       5040.9396   2.5653619e-15
       5042.1249   2.5496011e-15
       5043.3102   2.5542344e-15
       5044.4956   2.5427009e-15
       5045.6809   2.5491860e-15
       5046.8662   2.6052459e-15
       5048.0516   2.5743643e-15
       5049.2369   2.5925553e-15
       5050.4222   2.6339981e-15
       5051.6076   2.6198239e-15
       5052.7929   2.6149078e-15
       5053.9782   2.6664629e-15
       5055.1636   2.6765556e-15
       5056.3489   2.6795120e-15
       5057.5342   2.6554782e-15
       5058.7196   2.6508831e-15
       5059.9049   2.6995996e-15
       5061.0903   2.7251640e-15
       5062.2756   2.7351794e-15
       5063.4609   2.7296766e-15
       5064.6463   2.7177209e-15
       5065.8316   2.7248148e-15
       5067.0169   2.7241993e-15
       5068.2023   2.7102434e-15
       5069.3876   2.7658480e-15
       5070.5729   2.7896208e-15
       5071.7583   2.7662984e-15
       5072.9436   2.7759120e-15
       5074.1289   2.7930472e-15
       5075.3143   2.7981044e-15
       5076.4996   2.7896223e-15
       5077.6849   2.7839183e-15
       5078.8703   2.8196007e-15
       5080.0556   2.7909434e-15
       5081.2409   2.8127025e-15
       5082.4263   2.8322198e-15
       5083.6116   2.7742891e-15
       5084.7969   2.7817530e-15
       5085.9823   2.7835340e-15
       5087.1676   2.8275686e-15
       5088.3529   2.8123703e-15
       5089.5383   2.8243296e-15
       5090.7236   2.8541933e-15
       5091.9089   2.8517914e-15
       5093.0943   2.8602913e-15
       5094.2796   2.8616455e-15
       5095.4649   2.8495323e-15
       5096.6503   2.8467458e-15
       5097.8356   2.8490147e-15
       5099.0209   2.8664169e-15
       5100.2063   2.8664606e-15
       5101.3916   2.9106993e-15
       5102.5769   2.9119424e-15
       5103.7623   2.9123339e-15
       5104.9476   2.8819773e-15
       5106.1329   2.8894106e-15
       5107.3183   2.9508064e-15
       5108.5036   2.9244622e-15
       5109.6889   2.9080684e-15
       5110.8743   2.9317509e-15
       5112.0596   2.9346852e-15
       5113.2449   2.9211934e-15
       5114.4303   2.9261582e-15
       5115.6156   2.9379229e-15
       5116.8009   2.9680365e-15
       5117.9863   2.9762328e-15
       5119.1716   2.9596917e-15
       5120.3569   2.9791818e-15
       5121.5423   2.9355453e-15
       5122.7276   2.9201227e-15
       5123.9129   2.9476037e-15
       5125.0983   2.9511196e-15
       5126.2836   3.0007878e-15
       5127.4689   3.0208290e-15
       5128.6543   2.9724697e-15
       5129.8396   2.9576154e-15
       5131.0250   3.0242405e-15
       5132.2103   2.9837184e-15
       5133.3956   2.9761088e-15
       5134.5810   3.0070843e-15
       5135.7663   3.0383229e-15
       5136.9516   3.0233042e-15
       5138.1370   3.0500785e-15
       5139.3223   3.0501961e-15
       5140.5076   3.0267469e-15
       5141.6930   3.0558587e-15
       5142.8783   3.1024419e-15
       5144.0636   3.0899354e-15
       5145.2490   3.0404450e-15
       5146.4343   3.0707933e-15
       5147.6196   3.0592362e-15
       5148.8050   3.0837326e-15
       5149.9903   3.1408179e-15
       5151.1756   3.1468390e-15
       5152.3610   3.1832648e-15
       5153.5463   3.1851378e-15
       5154.7316   3.1692562e-15
       5155.9170   3.2281575e-15
       5157.1023   3.2419686e-15
       5158.2876   3.2189236e-15
       5159.4730   3.2190385e-15
       5160.6583   3.2557600e-15
       5161.8436   3.2552837e-15
       5163.0290   3.2766782e-15
       5164.2143   3.3165738e-15
       5165.3996   3.3356979e-15
       5166.5850   3.3140421e-15
       5167.7703   3.2769797e-15
       5168.9556   3.3348942e-15
       5170.1410   3.3490742e-15
       5171.3263   3.3332853e-15
       5172.5116   3.3461592e-15
       5173.6970   3.3819458e-15
       5174.8823   3.3893803e-15
       5176.0676   3.4027051e-15
       5177.2530   3.4016117e-15
       5178.4383   3.4740565e-15
       5179.6236   3.4569067e-15
       5180.8090   3.4196408e-15
       5181.9943   3.4200727e-15
       5183.1796   3.4732189e-15
       5184.3650   3.5212438e-15
       5185.5503   3.5031216e-15
       5186.7356   3.5530217e-15
       5187.9210   3.5401200e-15
       5189.1063   3.5582093e-15
       5190.2916   3.5920929e-15
       5191.4770   3.6090355e-15
       5192.6623   3.5791465e-15
       5193.8476   3.5928502e-15
       5195.0330   3.6220234e-15
       5196.2183   3.6467969e-15
       5197.4036   3.6574559e-15
       5198.5890   3.7296625e-15
       5199.7743   3.7248137e-15
       5200.9597   3.7404884e-15
       5202.1450   3.7412727e-15
       5203.3303   3.7901513e-15
       5204.5157   3.7688785e-15
       5205.7010   3.7994796e-15
       5206.8863   3.7771131e-15
       5208.0717   3.8009340e-15
       5209.2570   3.8583666e-15
       5210.4423   3.8553817e-15
       5211.6277   3.8855772e-15
       5212.8130   3.8947340e-15
       5213.9983   3.9085046e-15
       5215.1837   3.9159938e-15
       5216.3690   3.9241200e-15
       5217.5543   3.8975167e-15
       5218.7397   3.9406012e-15
       5219.9250   3.9787169e-15
       5221.1103   4.0166883e-15
       5222.2957   4.0144464e-15
       5223.4810   4.0572964e-15
       5224.6663   4.0624066e-15
       5225.8517   4.0944169e-15
       5227.0370   4.1081243e-15
       5228.2223   4.0620166e-15
       5229.4077   4.0739099e-15
       5230.5930   4.0669721e-15
       5231.7783   4.1188106e-15
       5232.9637   4.1222331e-15
       5234.1490   4.0970224e-15
       5235.3343   4.1306647e-15
       5236.5197   4.1373670e-15
       5237.7050   4.1771671e-15
       5238.8903   4.1257763e-15
       5240.0757   4.1848471e-15
       5241.2610   4.1813573e-15
       5242.4463   4.1619576e-15
       5243.6317   4.1761071e-15
       5244.8170   4.2510832e-15
       5246.0023   4.2458670e-15
       5247.1877   4.2743017e-15
       5248.3730   4.2815411e-15
       5249.5583   4.2954473e-15
       5250.7437   4.3430723e-15
       5251.9290   4.2805497e-15
       5253.1143   4.3582795e-15
       5254.2997   4.3911835e-15
       5255.4850   4.3901572e-15
       5256.6703   4.3951165e-15
       5257.8557   4.4297640e-15
       5259.0410   4.3660276e-15
       5260.2263   4.4301309e-15
       5261.4117   4.4475654e-15
       5262.5970   4.4819368e-15
       5263.7823   4.5345544e-15
       5264.9677   4.5423281e-15
       5266.1530   4.5723826e-15
       5267.3383   4.5665477e-15
       5268.5237   4.5267348e-15
       5269.7090   4.5785295e-15
       5270.8944   4.6545471e-15
       5272.0797   4.6615620e-15
       5273.2650   4.6802870e-15
       5274.4504   4.6589877e-15
       5275.6357   4.6320324e-15
       5276.8210   4.6034349e-15
       5278.0064   4.6006144e-15
       5279.1917   4.5826707e-15
       5280.3770   4.6214939e-15
       5281.5624   4.6373831e-15
       5282.7477   4.6701133e-15
       5283.9330   4.6414893e-15
       5285.1184   4.6026919e-15
       5286.3037   4.6097945e-15
       5287.4890   4.6293912e-15
       5288.6744   4.5962262e-15
       5289.8597   4.6313851e-15
       5291.0450   4.6371447e-15
       5292.2304   4.6059320e-15
       5293.4157   4.5526568e-15
       5294.6010   4.5733500e-15
       5295.7864   4.5873818e-15
       5296.9717   4.5375947e-15
       5298.1570   4.5703715e-15
       5299.3424   4.5967132e-15
       5300.5277   4.5674860e-15
       5301.7130   4.5839339e-15
       5302.8984   4.5665923e-15
       5304.0837   4.5635744e-15
       5305.2690   4.6013199e-15
       5306.4544   4.6304304e-15
       5307.6397   4.5760507e-15
       5308.8250   4.5987350e-15
       5310.0104   4.5781285e-15
       5311.1957   4.5697884e-15
       5312.3810   4.6099107e-15
       5313.5664   4.6077006e-15
       5314.7517   4.6189667e-15
       5315.9370   4.5749216e-15
       5317.1224   4.5452366e-15
       5318.3077   4.6228663e-15
       5319.4930   4.6140090e-15
       5320.6784   4.5761188e-15
       5321.8637   4.6379194e-15
       5323.0490   4.6080424e-15
       5324.2344   4.6079357e-15
       5325.4197   4.6173428e-15
       5326.6050   4.6590765e-15
       5327.7904   4.6750197e-15
       5328.9757   4.5859873e-15
       5330.1610   4.6514655e-15
       5331.3464   4.6531951e-15
       5332.5317   4.6371290e-15
       5333.7170   4.6646326e-15
       5334.9024   4.6285163e-15
       5336.0877   4.6309794e-15
       5337.2731   4.7023972e-15
       5338.4584   4.6807903e-15
       5339.6437   4.7183565e-15
       5340.8291   4.7302063e-15
       5342.0144   4.7288281e-15
       5343.1997   4.7510998e-15
       5344.3851   4.7043512e-15
       5345.5704   4.7313602e-15
       5346.7557   4.7434115e-15
       5347.9411   4.7985951e-15
       5349.1264   4.8704851e-15
       5350.3117   4.8461230e-15
       5351.4971   4.8194266e-15
       5352.6824   4.8563333e-15
       5353.8677   4.8679328e-15
       5355.0531   4.8982942e-15
       5356.2384   4.8602992e-15
       5357.4237   4.8259227e-15
       5358.6091   4.9086991e-15
       5359.7944   4.8823560e-15
       5360.9797   4.8869457e-15
       5362.1651   4.9160980e-15
       5363.3504   4.9675670e-15
       5364.5357   4.9921113e-15
       5365.7211   4.9419974e-15
       5366.9064   4.9918510e-15
       5368.0917   5.0131250e-15
       5369.2771   4.9764617e-15
       5370.4624   5.0091576e-15
       5371.6477   5.0442028e-15
       5372.8331   5.0715452e-15
       5374.0184   5.1010859e-15
       5375.2037   5.0713125e-15
       5376.3891   5.0229882e-15
       5377.5744   5.0686078e-15
       5378.7597   5.0620339e-15
       5379.9451   5.0575776e-15
       5381.1304   5.0696154e-15
       5382.3157   5.1058214e-15
       5383.5011   5.0915851e-15
       5384.6864   5.0740951e-15
       5385.8717   5.0917822e-15
       5387.0571   5.0863646e-15
       5388.2424   5.1306465e-15
       5389.4277   5.1428146e-15
       5390.6131   5.1672463e-15
       5391.7984   5.1126859e-15
       5392.9837   5.1863216e-15
       5394.1691   5.1577483e-15
       5395.3544   5.1797735e-15
       5396.5397   5.1785666e-15
       5397.7251   5.1778503e-15
       5398.9104   5.0989146e-15
       5400.0957   5.0927176e-15
       5401.2811   5.1359268e-15
       5402.4664   5.1675597e-15
       5403.6517   5.2302343e-15
       5404.8371   5.1875229e-15
       5406.0224   5.2059102e-15
       5407.2078   5.2188556e-15
       5408.3931   5.2481581e-15
       5409.5784   5.2029499e-15
       5410.7638   5.2482620e-15
       5411.9491   5.2267688e-15
       5413.1344   5.1884552e-15
       5414.3198   5.2018664e-15
       5415.5051   5.1289486e-15
       5416.6904   5.1640581e-15
       5417.8758   5.1965906e-15
       5419.0611   5.1988310e-15
       5420.2464   5.1391607e-15
       5421.4318   5.2362687e-15
       5422.6171   5.2189704e-15
       5423.8024   5.1589839e-15
       5424.9878   5.1818397e-15
       5426.1731   5.2108370e-15
       5427.3584   5.2183976e-15
       5428.5438   5.1767139e-15
       5429.7291   5.2095520e-15
       5430.9144   5.2094597e-15
       5432.0998   5.1588845e-15
       5433.2851   5.1908956e-15
       5434.4704   5.1189489e-15
       5435.6558   5.1522653e-15
       5436.8411   5.1393399e-15
       5438.0264   5.1785647e-15
       5439.2118   5.1393158e-15
       5440.3971   5.1034294e-15
       5441.5824   5.1111901e-15
       5442.7678   5.1284946e-15
       5443.9531   5.0416972e-15
       5445.1384   5.0336507e-15
       5446.3238   5.0572398e-15
       5447.5091   5.0273086e-15
       5448.6944   5.0085292e-15
       5449.8798   4.9789067e-15
       5451.0651   5.0170967e-15
       5452.2504   5.0160415e-15
       5453.4358   4.9990460e-15
       5454.6211   4.9755763e-15
       5455.8064   4.9738332e-15
       5456.9918   4.8999116e-15
       5458.1771   4.9682169e-15
       5459.3624   4.9897599e-15
       5460.5478   4.9263296e-15
       5461.7331   4.8817055e-15
       5462.9184   4.8776949e-15
       5464.1038   4.8858159e-15
       5465.2891   4.8866159e-15
       5466.4744   4.8792651e-15
       5467.6598   4.8819558e-15
       5468.8451   4.8641759e-15
       5470.0304   4.8704922e-15
       5471.2158   4.8631783e-15
       5472.4011   4.8227032e-15
       5473.5864   4.7949283e-15
       5474.7718   4.8273977e-15
       5475.9571   4.8732072e-15
       5477.1425   4.8366943e-15
       5478.3278   4.7957586e-15
       5479.5131   4.8168764e-15
       5480.6985   4.8122525e-15
       5481.8838   4.7831325e-15
       5483.0691   4.7873697e-15
       5484.2545   4.7928492e-15
       5485.4398   4.7902863e-15
       5486.6251   4.7609661e-15
       5487.8105   4.7206661e-15
       5488.9958   4.7520368e-15
       5490.1811   4.7377538e-15
       5491.3665   4.7322153e-15
       5492.5518   4.7704520e-15
       5493.7371   4.8239424e-15
       5494.9225   4.7677324e-15
       5496.1078   4.7793794e-15
       5497.2931   4.7685699e-15
       5498.4785   4.7274643e-15
       5499.6638   4.7221046e-15
       5500.8491   4.7506057e-15
       5502.0345   4.7214338e-15
       5503.2198   4.7195196e-15
       5504.4051   4.7073481e-15
       5505.5905   4.7035373e-15
       5506.7758   4.6920050e-15
       5507.9611   4.6918798e-15
       5509.1465   4.6848531e-15
       5510.3318   4.7053815e-15
       5511.5171   4.6763460e-15
       5512.7025   4.6024223e-15
       5513.8878   4.6593550e-15
       5515.0731   4.6731971e-15
       5516.2585   4.6656584e-15
       5517.4438   4.7038427e-15
       5518.6291   4.6286914e-15
       5519.8145   4.5893603e-15
       5520.9998   4.5869910e-15
       5522.1851   4.5735519e-15
       5523.3705   4.5998559e-15
       5524.5558   4.5908855e-15
       5525.7411   4.5920465e-15
       5526.9265   4.5410813e-15
       5528.1118   4.6162558e-15
       5529.2971   4.5334117e-15
       5530.4825   4.4984511e-15
       5531.6678   4.5206910e-15
       5532.8531   4.4500132e-15
       5534.0385   4.4847610e-15
       5535.2238   4.5180903e-15
       5536.4091   4.5391196e-15
       5537.5945   4.5299836e-15
       5538.7798   4.4512575e-15
       5539.9651   4.4747469e-15
       5541.1505   4.5420437e-15
       5542.3358   4.5642227e-15
       5543.5211   4.6002868e-15
       5544.7065   4.5388001e-15
       5545.8918   4.4736022e-15
       5547.0772   4.4907113e-15
       5548.2625   4.4845091e-15
       5549.4478   4.4697638e-15
       5550.6332   4.4797928e-15
       5551.8185   4.4613217e-15
       5553.0038   4.4608997e-15
       5554.1892   4.4757394e-15
       5555.3745   4.4953560e-15
       5556.5598   4.4837319e-15
       5557.7452   4.4759711e-15
       5558.9305   4.4774010e-15
       5560.1158   4.4849491e-15
       5561.3012   4.5202947e-15
       5562.4865   4.4436285e-15
       5563.6718   4.4827477e-15
       5564.8572   4.4960539e-15
       5566.0425   4.3945034e-15
       5567.2278   4.4394672e-15
       5568.4132   4.4167033e-15
       5569.5985   4.4990511e-15
       5570.7838   4.4202999e-15
       5571.9692   4.4069702e-15
       5573.1545   4.4450948e-15
       5574.3398   4.4591545e-15
       5575.5252   4.3853619e-15
       5576.7105   4.3928613e-15
       5577.8958   4.3701755e-15
       5579.0812   4.4564666e-15
       5580.2665   4.4332676e-15
       5581.4518   4.3773882e-15
       5582.6372   4.3578765e-15
       5583.8225   4.3502769e-15
       5585.0078   4.3579020e-15
       5586.1932   4.3448282e-15
       5587.3785   4.3606925e-15
       5588.5638   4.3115255e-15
       5589.7492   4.2879789e-15
       5590.9345   4.2799669e-15
       5592.1198   4.2502920e-15
       5593.3052   4.2387497e-15
       5594.4905   4.2587241e-15
       5595.6758   4.1502148e-15
       5596.8612   4.1589713e-15
       5598.0465   4.1228034e-15
       5599.2318   4.1117423e-15
       5600.4172   4.1100735e-15
       5601.6025   4.0300987e-15
       5602.7878   4.0031061e-15
       5603.9732   4.0018940e-15
       5605.1585   3.9701232e-15
       5606.3438   3.9146890e-15
       5607.5292   3.8741769e-15
       5608.7145   3.8683857e-15
       5609.8998   3.7907871e-15
       5611.0852   3.7848763e-15
       5612.2705   3.7590695e-15
       5613.4559   3.7602361e-15
       5614.6412   3.6916370e-15
       5615.8265   3.6466352e-15
       5617.0119   3.5957134e-15
       5618.1972   3.5970801e-15
       5619.3825   3.5212824e-15
       5620.5679   3.4988583e-15
       5621.7532   3.4921337e-15
       5622.9385   3.4206655e-15
       5624.1239   3.4513695e-15
       5625.3092   3.4454005e-15
       5626.4945   3.3366786e-15
       5627.6799   3.3127866e-15
       5628.8652   3.3424637e-15
       5630.0505   3.3437865e-15
       5631.2359   3.3300198e-15
       5632.4212   3.3146797e-15
       5633.6065   3.2483048e-15
       5634.7919   3.1674483e-15
       5635.9772   3.1600281e-15
       5637.1625   3.2061405e-15
       5638.3479   3.3031739e-15
       5639.5332   3.1800420e-15
       5640.7185   3.0891713e-15
       5641.9039   3.0488044e-15
       5643.0892   3.0001259e-15
       5644.2745   3.1273012e-15
       5645.4599   3.0874575e-15
       5646.6452   3.0617296e-15
       5647.8305   3.0775479e-15
       5649.0159   3.1096007e-15
       5650.2012   3.0671732e-15
       5651.3865   3.0285340e-15
       5652.5719   3.0279329e-15
       5653.7572   2.9532447e-15
       5654.9425   3.0190992e-15
       5656.1279   2.9903396e-15
       5657.3132   3.0276000e-15
       5658.4985   3.0736805e-15
       5659.6839   3.0355834e-15
       5660.8692   3.0201822e-15
       5662.0545   3.0277291e-15
       5663.2399   3.0290172e-15
       5664.4252   3.0363609e-15
       5665.6105   3.0225768e-15
       5666.7959   3.0103287e-15
       5667.9812   3.0189503e-15
       5669.1665   3.0122904e-15
       5670.3519   2.9858380e-15
       5671.5372   2.9851643e-15
       5672.7225   2.9286158e-15
       5673.9079   2.8787655e-15
       5675.0932   3.0210921e-15
       5676.2785   2.9002874e-15
       5677.4639   2.8859236e-15
       5678.6492   2.9536004e-15
       5679.8345   2.9146741e-15
       5681.0199   2.9180090e-15
       5682.2052   2.9260996e-15
       5683.3906   2.9190339e-15
       5684.5759   2.9103304e-15
       5685.7612   2.9182161e-15
       5686.9466   2.9387807e-15
       5688.1319   2.9067384e-15
       5689.3172   2.9231531e-15
       5690.5026   2.9094549e-15
       5691.6879   2.9458292e-15
       5692.8732   2.9401670e-15
       5694.0586   2.9025414e-15
       5695.2439   2.9061938e-15
       5696.4292   2.9105041e-15
       5697.6146   2.9049535e-15
       5698.7999   2.9143583e-15
       5699.9852   2.9016268e-15
       5701.1706   2.9291434e-15
       5702.3559   2.9548531e-15
       5703.5412   2.9281423e-15
       5704.7266   2.9109747e-15
       5705.9119   2.9223492e-15
       5707.0972   2.9928082e-15
       5708.2826   2.9779794e-15
       5709.4679   2.9587789e-15
       5710.6532   2.9708122e-15
       5711.8386   2.9486002e-15
       5713.0239   2.9365700e-15
       5714.2092   3.0115478e-15
       5715.3946   3.0228954e-15
       5716.5799   2.9780073e-15
       5717.7652   2.9026719e-15
       5718.9506   2.9457640e-15
       5720.1359   2.9388218e-15
       5721.3212   2.9485216e-15
       5722.5066   2.8812273e-15
       5723.6919   2.8392719e-15
       5724.8772   2.9963588e-15
       5726.0626   3.0037926e-15
       5727.2479   2.9874216e-15
       5728.4332   3.0151611e-15
       5729.6186   2.9847519e-15
       5730.8039   2.9546413e-15
       5731.9892   2.9646275e-15
       5733.1746   2.9875731e-15
       5734.3599   2.9792369e-15
       5735.5452   3.0226430e-15
       5736.7306   3.0814916e-15
       5737.9159   3.0160269e-15
       5739.1012   3.0396317e-15
       5740.2866   3.1216401e-15
       5741.4719   3.0960819e-15
       5742.6572   3.1680503e-15
       5743.8426   3.2215130e-15
       5745.0279   3.1704397e-15
       5746.2132   3.1945490e-15
       5747.3986   3.1705126e-15
       5748.5839   3.1927374e-15
       5749.7692   3.2574472e-15
       5750.9546   3.3255224e-15
       5752.1399   3.2805560e-15
       5753.3253   3.3950079e-15
       5754.5106   3.4148930e-15
       5755.6959   3.3468457e-15
       5756.8813   3.3343813e-15
       5758.0666   3.3451680e-15
       5759.2519   3.4425667e-15
       5760.4373   3.4527915e-15
       5761.6226   3.4639841e-15
       5762.8079   3.4775101e-15
       5763.9933   3.4721975e-15
       5765.1786   3.4756745e-15
       5766.3639   3.5391264e-15
       5767.5493   3.5795800e-15
       5768.7346   3.6007786e-15
       5769.9199   3.5511462e-15
       5771.1053   3.5897710e-15
       5772.2906   3.6922333e-15
       5773.4759   3.7023557e-15
       5774.6613   3.6722489e-15
       5775.8466   3.7132947e-15
       5777.0319   3.7894418e-15
       5778.2173   3.7494589e-15
       5779.4026   3.7204444e-15
       5780.5879   3.7683249e-15
       5781.7733   3.8563129e-15
       5782.9586   3.8124732e-15
       5784.1439   3.8314714e-15
       5785.3293   3.8698109e-15
       5786.5146   3.8366489e-15
       5787.6999   3.8466697e-15
       5788.8853   3.9212991e-15
       5790.0706   4.0214052e-15
       5791.2559   4.0466939e-15
       5792.4413   3.9866455e-15
       5793.6266   3.9276254e-15
       5794.8119   3.9781659e-15
       5795.9973   3.9972958e-15
       5797.1826   4.0297083e-15
       5798.3679   4.0277861e-15
       5799.5533   4.0221658e-15
       5800.7386   4.0378527e-15
       5801.9239   4.1173412e-15
       5803.1093   4.0782133e-15
       5804.2946   4.1402870e-15
       5805.4799   4.1850846e-15
       5806.6653   4.1423271e-15
       5807.8506   4.1417813e-15
       5809.0359   4.1453894e-15
       5810.2213   4.1939604e-15
       5811.4066   4.2445038e-15
       5812.5919   4.2714870e-15
       5813.7773   4.3271621e-15
       5814.9626   4.2684728e-15
       5816.1479   4.2166697e-15
       5817.3333   4.2481460e-15
       5818.5186   4.2894885e-15
       5819.7039   4.2507246e-15
       5820.8893   4.2110588e-15
       5822.0746   4.2327517e-15
       5823.2600   4.2587031e-15
       5824.4453   4.2462512e-15
       5825.6306   4.2757384e-15
       5826.8160   4.2964298e-15
       5828.0013   4.3666407e-15
       5829.1866   4.3180790e-15
       5830.3720   4.2556190e-15
       5831.5573   4.3337811e-15
       5832.7426   4.3122452e-15
       5833.9280   4.2818465e-15
       5835.1133   4.3205079e-15
       5836.2986   4.3678469e-15
       5837.4840   4.3082091e-15
       5838.6693   4.3276734e-15
       5839.8546   4.3972138e-15
       5841.0400   4.4178653e-15
       5842.2253   4.3454570e-15
       5843.4106   4.3987810e-15
       5844.5960   4.3631220e-15
       5845.7813   4.3936000e-15
       5846.9666   4.4084598e-15
       5848.1520   4.4116438e-15
       5849.3373   4.4421384e-15
       5850.5226   4.4681839e-15
       5851.7080   4.4437546e-15
       5852.8933   4.4349237e-15
       5854.0786   4.4450894e-15
       5855.2640   4.4669147e-15
       5856.4493   4.4691955e-15
       5857.6346   4.4422860e-15
       5858.8200   4.4909191e-15
       5860.0053   4.5123235e-15
       5861.1906   4.4892071e-15
       5862.3760   4.4793998e-15
       5863.5613   4.5086239e-15
       5864.7466   4.5028560e-15
       5865.9320   4.5109420e-15
       5867.1173   4.5185292e-15
       5868.3026   4.5494346e-15
       5869.4880   4.5879615e-15
       5870.6733   4.4768644e-15
       5871.8586   4.4382725e-15
       5873.0440   4.5330491e-15
       5874.2293   4.5544194e-15
       5875.4146   4.5049250e-15
       5876.6000   4.5078632e-15
       5877.7853   4.5073934e-15
       5878.9706   4.5525026e-15
       5880.1560   4.5655841e-15
       5881.3413   4.5619034e-15
       5882.5266   4.5839224e-15
       5883.7120   4.5253708e-15
       5884.8973   4.5468267e-15
       5886.0826   4.5131197e-15
       5887.2680   4.5618549e-15
       5888.4533   4.5270190e-15
       5889.6387   4.4676696e-15
       5890.8240   4.4912432e-15
       5892.0093   4.5182563e-15
       5893.1947   4.5404356e-15
       5894.3800   4.4977134e-15
       5895.5653   4.4295421e-15
       5896.7507   4.4669158e-15
       5897.9360   4.5159631e-15
       5899.1213   4.5784557e-15
       5900.3067   4.5847315e-15
       5901.4920   4.5852326e-15
       5902.6773   4.5907967e-15
       5903.8627   4.6240582e-15
       5905.0480   4.5920696e-15
       5906.2333   4.6159480e-15
       5907.4187   4.5909800e-15
       5908.6040   4.5751932e-15
       5909.7893   4.6005230e-15
       5910.9747   4.5858090e-15
       5912.1600   4.5127253e-15
       5913.3453   4.4822436e-15
       5914.5307   4.4382003e-15
       5915.7160   4.2944314e-15
       5916.9013   4.1968842e-15
       5918.0867   4.1890220e-15
       5919.2720   4.1913737e-15
       5920.4573   4.2643152e-15
       5921.6427   4.3499475e-15
       5922.8280   4.3015241e-15
       5924.0133   4.3572742e-15
       5925.1987   4.4207211e-15
       5926.3840   4.4361347e-15
       5927.5693   4.5087601e-15
       5928.7547   4.6144161e-15
       5929.9400   4.5706212e-15
       5931.1253   4.5664599e-15
       5932.3107   4.5725471e-15
       5933.4960   4.6038186e-15
       5934.6813   4.5786231e-15
       5935.8667   4.5868963e-15
       5937.0520   4.5905075e-15
       5938.2373   4.6332281e-15
       5939.4227   4.6129532e-15
       5940.6080   4.5450643e-15
       5941.7933   4.4905817e-15
       5942.9787   4.5052781e-15
       5944.1640   4.5239500e-15
       5945.3493   4.4776248e-15
       5946.5347   4.4581081e-15
       5947.7200   4.5103750e-15
       5948.9053   4.5160211e-15
       5950.0907   4.5060329e-15
       5951.2760   4.5479945e-15
       5952.4613   4.4810245e-15
       5953.6467   4.4883698e-15
       5954.8320   4.4806935e-15
       5956.0173   4.4576253e-15
       5957.2027   4.5421790e-15
       5958.3880   4.5243568e-15
       5959.5734   4.4436786e-15
       5960.7587   4.4848252e-15
       5961.9440   4.4832183e-15
       5963.1294   4.4628075e-15
       5964.3147   4.4692142e-15
       5965.5000   4.3893653e-15
       5966.6854   4.3593255e-15
       5967.8707   4.4115466e-15
       5969.0560   4.4647111e-15
       5970.2414   4.4107389e-15
       5971.4267   4.3391312e-15
       5972.6120   4.4008851e-15
       5973.7974   4.4288894e-15
       5974.9827   4.3011027e-15
       5976.1680   4.3526722e-15
       5977.3534   4.3467605e-15
       5978.5387   4.3591435e-15
       5979.7240   4.3252599e-15
       5980.9094   4.3449139e-15
       5982.0947   4.3206840e-15
       5983.2800   4.3131963e-15
       5984.4654   4.2822388e-15
       5985.6507   4.2961390e-15
       5986.8360   4.2802112e-15
       5988.0214   4.3364331e-15
       5989.2067   4.3565632e-15
       5990.3920   4.3419577e-15
       5991.5774   4.2736319e-15
       5992.7627   4.2577536e-15
       5993.9480   4.1902833e-15
       5995.1334   4.1881467e-15
       5996.3187   4.2407656e-15
       5997.5040   4.2561855e-15
       5998.6894   4.2011717e-15
       5999.8747   4.1777711e-15
       6001.0600   4.2540088e-15
       6002.2454   4.2191195e-15
       6003.4307   4.1354454e-15
       6004.6160   4.1051096e-15
       6005.8014   4.0817504e-15
       6006.9867   4.0544977e-15
       6008.1720   4.0351163e-15
       6009.3574   4.0508285e-15
       6010.5427   4.0661943e-15
       6011.7280   4.0458812e-15
       6012.9134   4.0346340e-15
       6014.0987   4.0111584e-15
       6015.2840   4.0299088e-15
       6016.4694   4.0641067e-15
       6017.6547   4.0280364e-15
       6018.8400   3.9222683e-15
       6020.0254   3.8910167e-15
       6021.2107   3.9044642e-15
       6022.3960   3.9023629e-15
       6023.5814   3.8513135e-15
       6024.7667   3.8779759e-15
       6025.9520   3.8608452e-15
       6027.1374   3.8606785e-15
       6028.3227   3.8141696e-15
       6029.5081   3.8032481e-15
       6030.6934   3.7878134e-15
       6031.8787   3.8276735e-15
       6033.0641   3.7742168e-15
       6034.2494   3.8343722e-15
       6035.4347   3.8345100e-15
       6036.6201   3.8049597e-15
       6037.8054   3.7978216e-15
       6038.9907   3.8054908e-15
       6040.1761   3.7972231e-15
       6041.3614   3.7971840e-15
       6042.5467   3.7754867e-15
       6043.7321   3.7888661e-15
       6044.9174   3.7729764e-15
       6046.1027   3.7912913e-15
       6047.2881   3.8072622e-15
       6048.4734   3.8224027e-15
       6049.6587   3.8010022e-15
       6050.8441   3.7432464e-15
       6052.0294   3.7674200e-15
       6053.2147   3.8303283e-15
       6054.4001   3.8279390e-15
       6055.5854   3.8029675e-15
       6056.7707   3.7995961e-15
       6057.9561   3.8022506e-15
       6059.1414   3.8134383e-15
       6060.3267   3.8042066e-15
       6061.5121   3.8017387e-15
       6062.6974   3.7833881e-15
       6063.8827   3.8070497e-15
       6065.0681   3.7908931e-15
       6066.2534   3.7998791e-15
       6067.4387   3.8016083e-15
       6068.6241   3.7938085e-15
       6069.8094   3.8040421e-15
       6070.9947   3.7943274e-15
       6072.1801   3.7862925e-15
       6073.3654   3.7575791e-15
       6074.5507   3.7725312e-15
       6075.7361   3.7806244e-15
       6076.9214   3.8481179e-15
       6078.1067   3.8205947e-15
       6079.2921   3.7905105e-15
       6080.4774   3.7884359e-15
       6081.6627   3.8274354e-15
       6082.8481   3.8353927e-15
       6084.0334   3.8401032e-15
       6085.2187   3.8104123e-15
       6086.4041   3.7906537e-15
       6087.5894   3.7529113e-15
       6088.7747   3.7169470e-15
       6089.9601   3.7436096e-15
       6091.1454   3.7798086e-15
       6092.3307   3.7426022e-15
       6093.5161   3.8056957e-15
       6094.7014   3.8004317e-15
       6095.8867   3.7524331e-15
       6097.0721   3.6924101e-15
       6098.2574   3.6570630e-15
       6099.4428   3.6771513e-15
       6100.6281   3.7151114e-15
       6101.8134   3.7630950e-15
       6102.9988   3.7300735e-15
       6104.1841   3.7765495e-15
       6105.3694   3.7632791e-15
       6106.5548   3.7304192e-15
       6107.7401   3.7653028e-15
       6108.9254   3.7594325e-15
       6110.1108   3.8160718e-15
       6111.2961   3.7948942e-15
       6112.4814   3.7901136e-15
       6113.6668   3.8462843e-15
       6114.8521   3.8327510e-15
       6116.0374   3.8426013e-15
       6117.2228   3.8893372e-15
       6118.4081   3.8305973e-15
       6119.5934   3.8206388e-15
       6120.7788   3.8329698e-15
       6121.9641   3.8463816e-15
       6123.1494   3.8471070e-15
       6124.3348   3.8130628e-15
       6125.5201   3.8535458e-15
       6126.7054   3.9083398e-15
       6127.8908   3.8859398e-15
       6129.0761   3.8239256e-15
       6130.2614   3.8377305e-15
       6131.4468   3.9043407e-15
       6132.6321   3.9151716e-15
       6133.8174   3.9012921e-15
       6135.0028   3.8956347e-15
       6136.1881   3.8539959e-15
       6137.3734   3.8852106e-15
       6138.5588   3.8937705e-15
       6139.7441   3.8820271e-15
       6140.9294   3.8651148e-15
       6142.1148   3.8871016e-15
       6143.3001   3.8780763e-15
       6144.4854   3.8878090e-15
       6145.6708   3.8972621e-15
       6146.8561   3.8777140e-15
       6148.0414   3.9011261e-15
       6149.2268   3.9041692e-15
       6150.4121   3.8761040e-15
       6151.5974   3.8655956e-15
       6152.7828   3.8354950e-15
       6153.9681   3.8279742e-15
       6155.1534   3.8770852e-15
       6156.3388   3.8992994e-15
       6157.5241   3.8820498e-15
       6158.7094   3.8590227e-15
       6159.8948   3.8144387e-15
       6161.0801   3.7920744e-15
       6162.2654   3.8744641e-15
       6163.4508   3.9093193e-15
       6164.6361   3.9068695e-15
       6165.8215   3.8015987e-15
       6167.0068   3.7953405e-15
       6168.1921   3.7901153e-15
       6169.3775   3.8281265e-15
       6170.5628   3.8208424e-15
       6171.7481   3.8218608e-15
       6172.9335   3.8447599e-15
       6174.1188   3.7923359e-15
       6175.3041   3.7503348e-15
       6176.4895   3.7886207e-15
       6177.6748   3.7948370e-15
       6178.8601   3.7764993e-15
       6180.0455   3.7608663e-15
       6181.2308   3.7469364e-15
       6182.4161   3.7348132e-15
       6183.6015   3.7434094e-15
       6184.7868   3.7568185e-15
       6185.9721   3.7006335e-15
       6187.1575   3.6659131e-15
       6188.3428   3.6572277e-15
       6189.5281   3.6785237e-15
       6190.7135   3.6740890e-15
       6191.8988   3.6733332e-15
       6193.0841   3.6824199e-15
       6194.2695   3.6680071e-15
       6195.4548   3.6367278e-15
       6196.6401   3.6151831e-15
       6197.8255   3.5798572e-15
       6199.0108   3.5826851e-15
       6200.1961   3.5807390e-15
       6201.3815   3.5095018e-15
       6202.5668   3.5352516e-15
       6203.7521   3.5606018e-15
       6204.9375   3.5105877e-15
       6206.1228   3.4850223e-15
       6207.3081   3.4935435e-15
       6208.4935   3.5367491e-15
       6209.6788   3.4962477e-15
       6210.8641   3.4900772e-15
       6212.0495   3.4425774e-15
       6213.2348   3.4812622e-15
       6214.4201   3.4604830e-15
       6215.6055   3.4587513e-15
       6216.7908   3.4611873e-15
       6217.9761   3.4380122e-15
       6219.1615   3.4477047e-15
       6220.3468   3.4366982e-15
       6221.5321   3.3637437e-15
       6222.7175   3.3801029e-15
       6223.9028   3.3867492e-15
       6225.0881   3.3771668e-15
       6226.2735   3.3267166e-15
       6227.4588   3.3208757e-15
       6228.6441   3.3657792e-15
       6229.8295   3.3441466e-15
       6231.0148   3.2946458e-15
       6232.2001   3.3080728e-15
       6233.3855   3.3431445e-15
       6234.5708   3.3592893e-15
       6235.7562   3.3607297e-15
       6236.9415   3.3381553e-15
       6238.1268   3.3410188e-15
       6239.3122   3.3500655e-15
       6240.4975   3.3320904e-15
       6241.6828   3.2723639e-15
       6242.8682   3.3105065e-15
       6244.0535   3.3569197e-15
       6245.2388   3.3501378e-15
       6246.4242   3.2817247e-15
       6247.6095   3.3149077e-15
       6248.7948   3.3433719e-15
       6249.9802   3.3067551e-15
       6251.1655   3.2713475e-15
       6252.3508   3.2939459e-15
       6253.5362   3.3544876e-15
       6254.7215   3.3559963e-15
       6255.9068   3.3424235e-15
       6257.0922   3.3331625e-15
       6258.2775   3.3374604e-15
       6259.4628   3.3240308e-15
       6260.6482   3.3106096e-15
       6261.8335   3.3269966e-15
       6263.0188   3.3449098e-15
       6264.2042   3.3266910e-15
       6265.3895   3.2895877e-15
       6266.5748   3.2621190e-15
       6267.7602   3.2826281e-15
       6268.9455   3.3080301e-15
       6270.1308   3.3288416e-15
       6271.3162   3.3156489e-15
       6272.5015   3.2610833e-15
       6273.6868   3.2820628e-15
       6274.8722   3.3207110e-15
       6276.0575   3.3185088e-15
       6277.2428   3.2952160e-15
       6278.4282   3.2919817e-15
       6279.6135   3.2556770e-15
       6280.7988   3.3244869e-15
       6281.9842   3.2974389e-15
       6283.1695   3.2568987e-15
       6284.3548   3.2857157e-15
       6285.5402   3.3222434e-15
       6286.7255   3.2804925e-15
       6287.9108   3.2527311e-15
       6289.0962   3.2883288e-15
       6290.2815   3.3108322e-15
       6291.4668   3.2684364e-15
       6292.6522   3.3259744e-15
       6293.8375   3.3051338e-15
       6295.0228   3.3338623e-15
       6296.2082   3.3515959e-15
       6297.3935   3.3274256e-15
       6298.5788   3.3405090e-15
       6299.7642   3.3796206e-15
       6300.9495   3.3896862e-15
       6302.1348   3.4027278e-15
       6303.3202   3.3775060e-15
       6304.5055   3.3835071e-15
       6305.6909   3.3589075e-15
       6306.8762   3.3532507e-15
       6308.0615   3.3907088e-15
       6309.2469   3.4041948e-15
       6310.4322   3.4110488e-15
       6311.6175   3.4255460e-15
       6312.8029   3.4050757e-15
       6313.9882   3.3822546e-15
       6315.1735   3.3755850e-15
       6316.3589   3.4575072e-15
       6317.5442   3.4990296e-15
       6318.7295   3.4257938e-15
       6319.9149   3.3871395e-15
       6321.1002   3.4584921e-15
       6322.2855   3.4342964e-15
       6323.4709   3.4726367e-15
       6324.6562   3.5095849e-15
       6325.8415   3.5187956e-15
       6327.0269   3.4694994e-15
       6328.2122   3.5201658e-15
       6329.3975   3.5312026e-15
       6330.5829   3.4881061e-15
       6331.7682   3.4695044e-15
       6332.9535   3.5403944e-15
       6334.1389   3.5247998e-15
       6335.3242   3.4957805e-15
       6336.5095   3.5638451e-15
       6337.6949   3.6049347e-15
       6338.8802   3.5542829e-15
       6340.0655   3.5338193e-15
       6341.2509   3.5387136e-15
       6342.4362   3.5429784e-15
       6343.6215   3.6047672e-15
       6344.8069   3.5797632e-15
       6345.9922   3.5529530e-15
       6347.1775   3.5480819e-15
       6348.3629   3.5609569e-15
       6349.5482   3.6257028e-15
       6350.7335   3.6109156e-15
       6351.9189   3.6275201e-15
       6353.1042   3.6702798e-15
       6354.2895   3.6553858e-15
       6355.4749   3.6390976e-15
       6356.6602   3.6512050e-15
       6357.8455   3.6544073e-15
       6359.0309   3.6647045e-15
       6360.2162   3.6399460e-15
       6361.4015   3.6550591e-15
       6362.5869   3.6760930e-15
       6363.7722   3.7301258e-15
       6364.9575   3.7206704e-15
       6366.1429   3.6597600e-15
       6367.3282   3.6573193e-15
       6368.5135   3.6825710e-15
       6369.6989   3.7255927e-15
       6370.8842   3.7125990e-15
       6372.0695   3.6782230e-15
       6373.2549   3.6863311e-15
       6374.4402   3.6909434e-15
       6375.6256   3.6947911e-15
       6376.8109   3.7293061e-15
       6377.9962   3.7426588e-15
       6379.1816   3.7397677e-15
       6380.3669   3.6963347e-15
       6381.5522   3.7012549e-15
       6382.7376   3.7585406e-15
       6383.9229   3.7618145e-15
       6385.1082   3.7425724e-15
       6386.2936   3.7647972e-15
       6387.4789   3.7631531e-15
       6388.6642   3.7551842e-15
       6389.8496   3.7346979e-15
       6391.0349   3.7470287e-15
       6392.2202   3.8124188e-15
       6393.4056   3.8478105e-15
       6394.5909   3.8632921e-15
       6395.7762   3.8489997e-15
       6396.9616   3.8196754e-15
       6398.1469   3.8592508e-15
       6399.3322   3.9115852e-15
       6400.5176   3.8830870e-15
       6401.7029   3.9106041e-15
       6402.8882   3.9745621e-15
       6404.0736   3.9726847e-15
       6405.2589   3.9437326e-15
       6406.4442   3.9481590e-15
       6407.6296   3.9690128e-15
       6408.8149   3.9774675e-15
       6410.0002   3.9356380e-15
       6411.1856   3.9465210e-15
       6412.3709   3.9738348e-15
       6413.5562   4.0013086e-15
       6414.7416   3.9751915e-15
       6415.9269   3.9484217e-15
       6417.1122   3.9894481e-15
       6418.2976   4.0430899e-15
       6419.4829   4.0260103e-15
       6420.6682   4.0491762e-15
       6421.8536   4.0833487e-15
       6423.0389   4.0722298e-15
       6424.2242   4.0466704e-15
       6425.4096   4.0684589e-15
       6426.5949   4.0707020e-15
       6427.7802   4.0608577e-15
       6428.9656   4.0705026e-15
       6430.1509   4.0967408e-15
       6431.3362   4.0756905e-15
       6432.5216   4.0903758e-15
       6433.7069   4.0865727e-15
       6434.8922   4.0618211e-15
       6436.0776   4.0892607e-15
       6437.2629   4.1137315e-15
       6438.4482   4.1337307e-15
       6439.6336   4.1071754e-15
       6440.8189   4.0971563e-15
       6442.0043   4.0949447e-15
       6443.1896   4.0890693e-15
       6444.3749   4.0709084e-15
       6445.5603   4.0855806e-15
       6446.7456   4.1120579e-15
       6447.9309   4.0787692e-15
       6449.1163   4.1105258e-15
       6450.3016   4.1331450e-15
       6451.4869   4.1128252e-15
       6452.6723   4.0578663e-15
       6453.8576   4.0633217e-15
       6455.0429   4.0724451e-15
       6456.2283   4.0675599e-15
       6457.4136   4.0909595e-15
       6458.5989   4.1150161e-15
       6459.7843   4.0788301e-15
       6460.9696   4.0870163e-15
       6462.1549   4.1088529e-15
       6463.3403   4.0601185e-15
       6464.5256   4.0842148e-15
       6465.7109   4.0865300e-15
       6466.8963   4.0840674e-15
       6468.0816   4.1063369e-15
       6469.2669   4.0564310e-15
       6470.4523   4.0805453e-15
       6471.6376   4.0851762e-15
       6472.8229   4.1087432e-15
       6474.0083   4.0840199e-15
       6475.1936   4.0832360e-15
       6476.3789   4.0736499e-15
       6477.5643   4.0995295e-15
       6478.7496   4.1427972e-15
       6479.9349   4.1553214e-15
       6481.1203   4.1582796e-15
       6482.3056   4.1405993e-15
       6483.4909   4.1187917e-15
       6484.6763   4.1139755e-15
       6485.8616   4.1731304e-15
       6487.0469   4.1634602e-15
       6488.2323   4.1514025e-15
       6489.4176   4.1490855e-15
       6490.6029   4.1402288e-15
       6491.7883   4.1631696e-15
       6492.9736   4.1756404e-15
       6494.1589   4.1122399e-15
       6495.3443   4.1932954e-15
       6496.5296   4.2050142e-15
       6497.7149   4.2251449e-15
       6498.9003   4.2125255e-15
       6500.0856   4.2358237e-15
       6501.2709   4.2258781e-15
       6502.4563   4.2623512e-15
       6503.6416   4.2703904e-15
       6504.8269   4.1928066e-15
       6506.0123   4.2337611e-15
       6507.1976   4.2221789e-15
       6508.3829   4.2218623e-15
       6509.5683   4.2538763e-15
       6510.7536   4.2566274e-15
       6511.9390   4.1944372e-15
       6513.1243   4.2381026e-15
       6514.3096   4.2195799e-15
       6515.4950   4.2453183e-15
       6516.6803   4.2850701e-15
       6517.8656   4.2967415e-15
       6519.0510   4.2845096e-15
       6520.2363   4.2287223e-15
       6521.4216   4.2581499e-15
       6522.6070   4.2818603e-15
       6523.7923   4.2756536e-15
       6524.9776   4.2246191e-15
       6526.1630   4.2165701e-15
       6527.3483   4.2423975e-15
       6528.5336   4.2773680e-15
       6529.7190   4.2779844e-15
       6530.9043   4.2045518e-15
       6532.0896   4.2732970e-15
       6533.2750   4.3022117e-15
       6534.4603   4.2612292e-15
       6535.6456   4.2792957e-15
       6536.8310   4.3220052e-15
       6538.0163   4.2484915e-15
       6539.2016   4.2616747e-15
       6540.3870   4.3016195e-15
       6541.5723   4.2696020e-15
       6542.7576   4.2821671e-15
       6543.9430   4.2942665e-15
       6545.1283   4.3061568e-15
       6546.3136   4.2952578e-15
       6547.4990   4.2777123e-15
       6548.6843   4.2637083e-15
       6549.8696   4.2713988e-15
       6551.0550   4.2649731e-15
       6552.2403   4.2898088e-15
       6553.4256   4.3292070e-15
       6554.6110   4.2621772e-15
       6555.7963   4.2590040e-15
       6556.9816   4.3142358e-15
       6558.1670   4.3211326e-15
       6559.3523   4.3324993e-15
       6560.5376   4.3086319e-15
       6561.7230   4.2326792e-15
       6562.9083   4.2011816e-15
       6564.0936   4.2967723e-15
       6565.2790   4.2699200e-15
       6566.4643   4.2319240e-15
       6567.6496   4.2678671e-15
       6568.8350   4.2415021e-15
       6570.0203   4.2530784e-15
       6571.2056   4.2684187e-15
       6572.3910   4.2225394e-15
       6573.5763   4.2042775e-15
       6574.7616   4.2152346e-15
       6575.9470   4.2374386e-15
       6577.1323   4.2143385e-15
       6578.3176   4.2018971e-15
       6579.5030   4.2020327e-15
       6580.6883   4.2098300e-15
       6581.8737   4.2055253e-15
       6583.0590   4.2348589e-15
       6584.2443   4.2598117e-15
       6585.4297   4.2294501e-15
       6586.6150   4.1842791e-15
       6587.8003   4.1738770e-15
       6588.9857   4.1868745e-15
       6590.1710   4.1595168e-15
       6591.3563   4.0875933e-15
       6592.5417   4.0865466e-15
       6593.7270   4.1226962e-15
       6594.9123   4.2122528e-15
       6596.0977   4.3978338e-15
       6597.2830   4.4775469e-15
       6598.4683   4.3871746e-15
       6599.6537   4.2709762e-15
       6600.8390   4.1935736e-15
       6602.0243   4.1685830e-15
       6603.2097   4.1601332e-15
       6604.3950   4.1356367e-15
       6605.5803   4.0959877e-15
       6606.7657   4.1250442e-15
       6607.9510   4.0739176e-15
       6609.1363   4.0821479e-15
       6610.3217   4.0952645e-15
       6611.5070   4.0898488e-15
       6612.6923   4.1233305e-15
       6613.8777   4.0794177e-15
       6615.0630   4.0614588e-15
       6616.2483   4.0653388e-15
       6617.4337   4.1125854e-15
       6618.6190   4.1659174e-15
       6619.8043   4.1180009e-15
       6620.9897   4.1081740e-15
       6622.1750   4.1053091e-15
       6623.3603   4.0764246e-15
       6624.5457   4.0831983e-15
       6625.7310   4.0802243e-15
       6626.9163   4.0923472e-15
       6628.1017   4.0673586e-15
       6629.2870   4.0609643e-15
       6630.4723   4.0166038e-15
       6631.6577   4.0544799e-15
       6632.8430   4.0234555e-15
       6634.0283   4.0284021e-15
       6635.2137   4.0204473e-15
       6636.3990   4.0359237e-15
       6637.5843   4.0130740e-15
       6638.7697   4.0311486e-15
       6639.9550   4.0304718e-15
       6641.1403   4.0184548e-15
       6642.3257   4.0295984e-15
       6643.5110   4.0097607e-15
       6644.6963   4.0464578e-15
       6645.8817   4.0433616e-15
       6647.0670   3.9966675e-15
       6648.2523   4.0094756e-15
       6649.4377   4.0251534e-15
       6650.6230   3.9944610e-15
       6651.8084   3.9786997e-15
       6652.9937   3.9883986e-15
       6654.1790   3.9823064e-15
       6655.3644   3.9924401e-15
       6656.5497   4.0141219e-15
       6657.7350   3.9533686e-15
       6658.9204   3.9463692e-15
       6660.1057   3.9814323e-15
       6661.2910   3.9799020e-15
       6662.4764   3.9333972e-15
       6663.6617   3.9772126e-15
       6664.8470   3.9564279e-15
       6666.0324   3.9233159e-15
       6667.2177   3.9487491e-15
       6668.4030   3.9809369e-15
       6669.5884   3.9279333e-15
       6670.7737   3.9219487e-15
       6671.9590   3.9275208e-15
       6673.1444   3.9185950e-15
       6674.3297   3.9266652e-15
       6675.5150   3.9356377e-15
       6676.7004   3.9321168e-15
       6677.8857   3.9212259e-15
       6679.0710   3.8929894e-15
       6680.2564   3.9159214e-15
       6681.4417   3.9260706e-15
       6682.6270   3.8791509e-15
       6683.8124   3.8944933e-15
       6684.9977   3.8798021e-15
       6686.1830   3.8732762e-15
       6687.3684   3.8607578e-15
       6688.5537   3.8457275e-15
       6689.7390   3.8224096e-15
       6690.9244   3.8679172e-15
       6692.1097   3.8760643e-15
       6693.2950   3.8567548e-15
       6694.4804   3.8548010e-15
       6695.6657   3.8162237e-15
       6696.8510   3.8698834e-15
       6698.0364   3.8347317e-15
       6699.2217   3.8429982e-15
       6700.4070   3.8291008e-15
       6701.5924   3.8313396e-15
       6702.7777   3.8434649e-15
       6703.9630   3.8454443e-15
       6705.1484   3.8390352e-15
       6706.3337   3.8652020e-15
       6707.5190   3.8321850e-15
       6708.7044   3.8198276e-15
       6709.8897   3.8227159e-15
       6711.0750   3.8208707e-15
       6712.2604   3.7870554e-15
       6713.4457   3.8144202e-15
       6714.6310   3.7937401e-15
       6715.8164   3.7701075e-15
       6717.0017   3.8225554e-15
       6718.1871   3.8153341e-15
       6719.3724   3.7830679e-15
       6720.5577   3.7327745e-15
       6721.7431   3.7198064e-15
       6722.9284   3.7656985e-15
       6724.1137   3.7279899e-15
       6725.2991   3.7296868e-15
       6726.4844   3.7444190e-15
       6727.6697   3.6811397e-15
       6728.8551   3.6973247e-15
       6730.0404   3.6993766e-15
       6731.2257   3.6751865e-15
       6732.4111   3.6780358e-15
       6733.5964   3.6940389e-15
       6734.7817   3.6824233e-15
       6735.9671   3.6387974e-15
       6737.1524   3.6422936e-15
       6738.3377   3.6738739e-15
       6739.5231   3.6160061e-15
       6740.7084   3.6249430e-15
       6741.8937   3.6152319e-15
       6743.0791   3.5644339e-15
       6744.2644   3.5835764e-15
       6745.4497   3.6034825e-15
       6746.6351   3.5401662e-15
       6747.8204   3.5474354e-15
       6749.0057   3.5758624e-15
       6750.1911   3.5695217e-15
       6751.3764   3.5142922e-15
       6752.5617   3.5250057e-15
       6753.7471   3.5304917e-15
       6754.9324   3.4966415e-15
       6756.1177   3.4604562e-15
       6757.3031   3.4582234e-15
       6758.4884   3.4557576e-15
       6759.6737   3.4284119e-15
       6760.8591   3.3895858e-15
       6762.0444   3.3640816e-15
       6763.2297   3.3892466e-15
       6764.4151   3.4069346e-15
       6765.6004   3.3980489e-15
       6766.7857   3.4154332e-15
       6767.9711   3.3583605e-15
       6769.1564   3.3401240e-15
       6770.3417   3.3625872e-15
       6771.5271   3.3607302e-15
       6772.7124   3.3668410e-15
       6773.8977   3.3813216e-15
       6775.0831   3.3643095e-15
       6776.2684   3.3419865e-15
       6777.4537   3.3199666e-15
       6778.6391   3.3434630e-15
       6779.8244   3.3501520e-15
       6781.0097   3.3556891e-15
       6782.1951   3.3467331e-15
       6783.3804   3.3028610e-15
       6784.5657   3.3101386e-15
       6785.7511   3.3296410e-15
       6786.9364   3.3360000e-15
       6788.1218   3.3212858e-15
       6789.3071   3.3316954e-15
       6790.4924   3.3363287e-15
       6791.6778   3.3341002e-15
       6792.8631   3.3499548e-15
       6794.0484   3.2972278e-15
       6795.2338   3.2970578e-15
       6796.4191   3.3561532e-15
       6797.6044   3.3603051e-15
       6798.7898   3.3621445e-15
       6799.9751   3.3505919e-15
       6801.1604   3.3356294e-15
       6802.3458   3.3163204e-15
       6803.5311   3.3164020e-15
       6804.7164   3.3119210e-15
       6805.9018   3.2965875e-15
       6807.0871   3.3265693e-15
       6808.2724   3.3361832e-15
       6809.4578   3.3440299e-15
       6810.6431   3.3679446e-15
       6811.8284   3.3638838e-15
       6813.0138   3.3583018e-15
       6814.1991   3.3295505e-15
       6815.3844   3.3245640e-15
       6816.5698   3.3469650e-15
       6817.7551   3.3378478e-15
       6818.9404   3.3400418e-15
       6820.1258   3.3245487e-15
       6821.3111   3.3181673e-15
       6822.4964   3.3399810e-15
       6823.6818   3.3380114e-15
       6824.8671   3.3358765e-15
       6826.0524   3.3182219e-15
       6827.2378   3.3459031e-15
       6828.4231   3.3325046e-15
       6829.6084   3.3145133e-15
       6830.7938   3.3382134e-15
       6831.9791   3.3112562e-15
       6833.1644   3.2928920e-15
       6834.3498   3.2700208e-15
       6835.5351   3.2447080e-15
       6836.7204   3.2689611e-15
       6837.9058   3.3027374e-15
       6839.0911   3.2813293e-15
       6840.2764   3.2732200e-15
       6841.4618   3.2977039e-15
       6842.6471   3.2828610e-15
       6843.8324   3.2787054e-15
       6845.0178   3.3345685e-15
       6846.2031   3.3727529e-15
       6847.3884   3.3583039e-15
       6848.5738   3.3450296e-15
       6849.7591   3.3363864e-15
       6850.9444   3.3144904e-15
       6852.1298   3.3132135e-15
       6853.3151   3.3394356e-15
       6854.5004   3.3253096e-15
       6855.6858   3.3015784e-15
       6856.8711   3.3123339e-15
       6858.0565   3.3331693e-15
       6859.2418   3.3213998e-15
       6860.4271   3.3269105e-15
       6861.6125   3.3598684e-15
       6862.7978   3.3968744e-15
       6863.9831   3.4150101e-15
       6865.1685   3.4622675e-15
       6866.3538   3.5607833e-15
       6867.5391   3.5353615e-15
       6868.7245   3.4200315e-15
       6869.9098   3.3524759e-15
       6871.0951   3.3308438e-15
       6872.2805   3.3629552e-15
       6873.4658   3.3356440e-15
       6874.6511   3.2953383e-15
       6875.8365   3.2562249e-15
       6877.0218   3.2943785e-15
       6878.2071   3.3369307e-15
       6879.3925   3.3471427e-15
       6880.5778   3.3899206e-15
       6881.7631   3.4481813e-15
       6882.9485   3.4660625e-15
       6884.1338   3.4341609e-15
       6885.3191   3.4257253e-15
       6886.5045   3.4448782e-15
       6887.6898   3.4680076e-15
       6888.8751   3.4457285e-15
       6890.0605   3.4152011e-15
       6891.2458   3.4302386e-15
       6892.4311   3.4260631e-15
       6893.6165   3.4603299e-15
       6894.8018   3.4957666e-15
       6895.9871   3.4704272e-15
       6897.1725   3.4390716e-15
       6898.3578   3.4260841e-15
       6899.5431   3.4093254e-15
       6900.7285   3.3901018e-15
       6901.9138   3.4397603e-15
       6903.0991   3.4747317e-15
       6904.2845   3.4411161e-15
       6905.4698   3.4496978e-15
       6906.6551   3.4908070e-15
       6907.8405   3.5091557e-15
       6909.0258   3.4778457e-15
       6910.2111   3.4770634e-15
       6911.3965   3.4690099e-15
       6912.5818   3.4918077e-15
       6913.7671   3.5038949e-15
       6914.9525   3.5052431e-15
       6916.1378   3.4755239e-15
       6917.3231   3.4785311e-15
       6918.5085   3.4464852e-15
       6919.6938   3.4733185e-15
       6920.8791   3.4793841e-15
       6922.0645   3.4831678e-15
       6923.2498   3.4809906e-15
       6924.4351   3.4467717e-15
       6925.6205   3.4566142e-15
       6926.8058   3.4723976e-15
       6927.9912   3.4381310e-15
       6929.1765   3.4060659e-15
       6930.3618   3.4158098e-15
       6931.5472   3.3994867e-15
       6932.7325   3.3992361e-15
       6933.9178   3.4488089e-15
       6935.1032   3.4574504e-15
       6936.2885   3.4094337e-15
       6937.4738   3.4071904e-15
       6938.6592   3.4360488e-15
       6939.8445   3.4257542e-15
       6941.0298   3.4192486e-15
       6942.2152   3.4286221e-15
       6943.4005   3.4033638e-15
       6944.5858   3.3948960e-15
       6945.7712   3.3969875e-15
       6946.9565   3.4208018e-15
       6948.1418   3.4114857e-15
       6949.3272   3.3670040e-15
       6950.5125   3.3972074e-15
       6951.6978   3.3868940e-15
       6952.8832   3.3744869e-15
       6954.0685   3.3849424e-15
       6955.2538   3.3862567e-15
       6956.4392   3.4039416e-15
       6957.6245   3.3968395e-15
       6958.8098   3.3715924e-15
       6959.9952   3.3230190e-15
       6961.1805   3.3439733e-15
       6962.3658   3.3442847e-15
       6963.5512   3.3267157e-15
       6964.7365   3.3172852e-15
       6965.9218   3.3008219e-15
       6967.1072   3.2911689e-15
       6968.2925   3.2699371e-15
       6969.4778   3.2914198e-15
       6970.6632   3.2612661e-15
       6971.8485   3.2517662e-15
       6973.0338   3.2888707e-15
       6974.2192   3.3010744e-15
       6975.4045   3.2785076e-15
       6976.5898   3.2559198e-15
       6977.7752   3.2393029e-15
       6978.9605   3.2197582e-15
       6980.1458   3.2414634e-15
       6981.3312   3.2528078e-15
       6982.5165   3.2681486e-15
       6983.7018   3.2799804e-15
       6984.8872   3.2620975e-15
       6986.0725   3.2242560e-15
       6987.2578   3.1984146e-15
       6988.4432   3.2117416e-15
       6989.6285   3.2168978e-15
       6990.8138   3.1890634e-15
       6991.9992   3.1979344e-15
       6993.1845   3.2623295e-15
       6994.3699   3.2642982e-15
       6995.5552   3.2515245e-15
       6996.7405   3.2501328e-15
       6997.9259   3.2531215e-15
       6999.1112   3.2115532e-15
       7000.2965   3.2200758e-15
       7001.4819   3.2755185e-15
       7002.6672   3.2596587e-15
       7003.8525   3.2512474e-15
       7005.0379   3.2785395e-15
       7006.2232   3.2838587e-15
       7007.4085   3.2316125e-15
       7008.5939   3.2110403e-15
       7009.7792   3.2555001e-15
       7010.9645   3.2695279e-15
       7012.1499   3.2734848e-15
       7013.3352   3.2677470e-15
       7014.5205   3.2277942e-15
       7015.7059   3.2339644e-15
       7016.8912   3.2415256e-15
       7018.0765   3.2645842e-15
       7019.2619   3.2790101e-15
       7020.4472   3.2585988e-15
       7021.6325   3.2460235e-15
       7022.8179   3.2371940e-15
       7024.0032   3.2177179e-15
       7025.1885   3.2219528e-15
       7026.3739   3.2020256e-15
       7027.5592   3.2164175e-15
       7028.7445   3.2434581e-15
       7029.9299   3.2729278e-15
       7031.1152   3.2377319e-15
       7032.3005   3.2237565e-15
       7033.4859   3.2405125e-15
       7034.6712   3.2676361e-15
       7035.8565   3.2331560e-15
       7037.0419   3.1827959e-15
       7038.2272   3.1955589e-15
       7039.4125   3.2207298e-15
       7040.5979   3.1930236e-15
       7041.7832   3.1950879e-15
       7042.9685   3.2165664e-15
       7044.1539   3.1993836e-15
       7045.3392   3.1943387e-15
       7046.5245   3.1904975e-15
       7047.7099   3.2007294e-15
       7048.8952   3.1971927e-15
       7050.0805   3.1964255e-15
       7051.2659   3.1852596e-15
       7052.4512   3.1944200e-15
       7053.6365   3.1912091e-15
       7054.8219   3.1393703e-15
       7056.0072   3.1359415e-15
       7057.1925   3.1693445e-15
       7058.3779   3.1786856e-15
       7059.5632   3.1242465e-15
       7060.7485   3.1192341e-15
       7061.9339   3.1055608e-15
       7063.1192   3.0877627e-15
       7064.3046   3.1430563e-15
       7065.4899   3.1314714e-15
       7066.6752   3.1109948e-15
       7067.8606   3.0943196e-15
       7069.0459   3.0914453e-15
       7070.2312   3.1412274e-15
       7071.4166   3.1477000e-15
       7072.6019   3.1229665e-15
       7073.7872   3.1163079e-15
       7074.9726   3.1213204e-15
       7076.1579   3.1230595e-15
       7077.3432   3.1255145e-15
       7078.5286   3.1472929e-15
       7079.7139   3.1474058e-15
       7080.8992   3.1459357e-15
       7082.0846   3.1434556e-15
       7083.2699   3.1332687e-15
       7084.4552   3.1256150e-15
       7085.6406   3.1215673e-15
       7086.8259   3.1210372e-15
       7088.0112   3.1164024e-15
       7089.1966   3.1409899e-15
       7090.3819   3.1367420e-15
       7091.5672   3.1550993e-15
       7092.7526   3.1487360e-15
       7093.9379   3.0991371e-15
       7095.1232   3.0954237e-15
       7096.3086   3.1125659e-15
       7097.4939   3.1439068e-15
       7098.6792   3.1600587e-15
       7099.8646   3.1254376e-15
       7101.0499   3.1178705e-15
       7102.2352   3.1319481e-15
       7103.4206   3.1714590e-15
       7104.6059   3.1984245e-15
       7105.7912   3.1812700e-15
       7106.9766   3.1696972e-15
       7108.1619   3.1478909e-15
       7109.3472   3.1428109e-15
       7110.5326   3.1697380e-15
       7111.7179   3.1745577e-15
       7112.9032   3.1602089e-15
       7114.0886   3.1848925e-15
       7115.2739   3.1916673e-15
       7116.4592   3.1889819e-15
       7117.6446   3.1943537e-15
       7118.8299   3.2281494e-15
       7120.0152   3.2503889e-15
       7121.2006   3.2510807e-15
       7122.3859   3.2650372e-15
       7123.5712   3.2539967e-15
       7124.7566   3.2825221e-15
       7125.9419   3.2675578e-15
       7127.1272   3.2724429e-15
       7128.3126   3.2491774e-15
       7129.4979   3.2308545e-15
       7130.6832   3.2300198e-15
       7131.8686   3.2295695e-15
       7133.0539   3.2595271e-15
       7134.2393   3.2764624e-15
       7135.4246   3.2662967e-15
       7136.6099   3.2504047e-15
       7137.7953   3.2577086e-15
       7138.9806   3.2750559e-15
       7140.1659   3.3126661e-15
       7141.3513   3.2953118e-15
       7142.5366   3.2831029e-15
       7143.7219   3.2818766e-15
       7144.9073   3.2927131e-15
       7146.0926   3.3112247e-15
       7147.2779   3.3120655e-15
       7148.4633   3.3153828e-15
       7149.6486   3.2986491e-15
       7150.8339   3.3124090e-15
       7152.0193   3.3370755e-15
       7153.2046   3.3589395e-15
       7154.3899   3.3312735e-15
       7155.5753   3.3313441e-15
       7156.7606   3.3241269e-15
       7157.9459   3.3674150e-15
       7159.1313   3.3373279e-15
       7160.3166   3.3250878e-15
       7161.5019   3.3580751e-15
       7162.6873   3.3407445e-15
       7163.8726   3.3517900e-15
       7165.0579   3.3435330e-15
       7166.2433   3.3477043e-15
       7167.4286   3.3409128e-15
       7168.6139   3.3223722e-15
       7169.7993   3.3332246e-15
       7170.9846   3.3430796e-15
       7172.1699   3.3404260e-15
       7173.3553   3.2993076e-15
       7174.5406   3.3010623e-15
       7175.7259   3.3519251e-15
       7176.9113   3.3584883e-15
       7178.0966   3.3674775e-15
       7179.2819   3.3516000e-15
       7180.4673   3.3287751e-15
       7181.6526   3.3517480e-15
       7182.8379   3.3788376e-15
       7184.0233   3.3333359e-15
       7185.2086   3.3335241e-15
       7186.3939   3.3371776e-15
       7187.5793   3.3344189e-15
       7188.7646   3.3593508e-15
       7189.9499   3.3382192e-15
       7191.1353   3.3537924e-15
       7192.3206   3.3508124e-15
       7193.5059   3.3507526e-15
       7194.6913   3.3731808e-15
       7195.8766   3.4113059e-15
       7197.0619   3.3788645e-15
       7198.2473   3.3630118e-15
       7199.4326   3.4097435e-15
       7200.6179   3.3804552e-15
       7201.8033   3.3594091e-15
       7202.9886   3.3757216e-15
       7204.1740   3.3645995e-15
       7205.3593   3.3936008e-15
       7206.5446   3.3994934e-15
       7207.7300   3.4015708e-15
       7208.9153   3.4110450e-15
       7210.1006   3.3974147e-15
       7211.2860   3.3902364e-15
       7212.4713   3.4348865e-15
       7213.6566   3.4214835e-15
       7214.8420   3.4088218e-15
       7216.0273   3.4192672e-15
       7217.2126   3.4332795e-15
       7218.3980   3.4279029e-15
       7219.5833   3.4217373e-15
       7220.7686   3.4498766e-15
       7221.9540   3.4050412e-15
       7223.1393   3.3926574e-15
       7224.3246   3.4344901e-15
       7225.5100   3.4233956e-15
       7226.6953   3.4221540e-15
       7227.8806   3.4407892e-15
       7229.0660   3.4436336e-15
       7230.2513   3.4404065e-15
       7231.4366   3.4448399e-15
       7232.6220   3.4540342e-15
       7233.8073   3.4455285e-15
       7234.9926   3.4266231e-15
       7236.1780   3.4597121e-15
       7237.3633   3.4693540e-15
       7238.5486   3.4513598e-15
       7239.7340   3.4580979e-15
       7240.9193   3.4697007e-15
       7242.1046   3.4653980e-15
       7243.2900   3.4965840e-15
       7244.4753   3.5054633e-15
       7245.6606   3.4794371e-15
       7246.8460   3.4692187e-15
       7248.0313   3.4681560e-15
       7249.2166   3.4862077e-15
       7250.4020   3.5172210e-15
       7251.5873   3.5109238e-15
       7252.7726   3.4754803e-15
       7253.9580   3.4777286e-15
       7255.1433   3.4875581e-15
       7256.3286   3.4908995e-15
       7257.5140   3.4933105e-15
       7258.6993   3.5033699e-15
       7259.8846   3.5036341e-15
       7261.0700   3.4798292e-15
       7262.2553   3.4738719e-15
       7263.4406   3.4960549e-15
       7264.6260   3.5156840e-15
       7265.8113   3.5029501e-15
       7266.9966   3.4517122e-15
       7268.1820   3.4571487e-15
       7269.3673   3.4819080e-15
       7270.5526   3.4960862e-15
       7271.7380   3.5081700e-15
       7272.9233   3.5181462e-15
       7274.1087   3.4778298e-15
       7275.2940   3.4266179e-15
       7276.4793   3.4683453e-15
       7277.6647   3.4660894e-15
       7278.8500   3.4529077e-15
       7280.0353   3.4537980e-15
       7281.2207   3.4443798e-15
       7282.4060   3.4207789e-15
       7283.5913   3.4016120e-15
       7284.7767   3.3904819e-15
       7285.9620   3.3821881e-15
       7287.1473   3.3714819e-15
       7288.3327   3.4229805e-15
       7289.5180   3.4357423e-15
       7290.7033   3.4183923e-15
       7291.8887   3.4082397e-15
       7293.0740   3.4238182e-15
       7294.2593   3.4468321e-15
       7295.4447   3.4091089e-15
       7296.6300   3.4033653e-15
       7297.8153   3.4049720e-15
       7299.0007   3.3845390e-15
       7300.1860   3.4114660e-15
       7301.3713   3.4011269e-15
       7302.5567   3.3794131e-15
       7303.7420   3.3984675e-15
       7304.9273   3.4096824e-15
       7306.1127   3.4053575e-15
       7307.2980   3.4040275e-15
       7308.4833   3.3855563e-15
       7309.6687   3.3583191e-15
       7310.8540   3.3529719e-15
       7312.0393   3.3775787e-15
       7313.2247   3.3679534e-15
       7314.4100   3.3711058e-15
       7315.5953   3.4030279e-15
       7316.7807   3.4018188e-15
       7317.9660   3.3710580e-15
       7319.1513   3.3638662e-15
       7320.3367   3.3832309e-15
       7321.5220   3.3900849e-15
       7322.7073   3.3907004e-15
       7323.8927   3.4269758e-15
       7325.0780   3.4252908e-15
       7326.2633   3.3961670e-15
       7327.4487   3.4420861e-15
       7328.6340   3.4615630e-15
       7329.8193   3.4384896e-15
       7331.0047   3.4291354e-15
       7332.1900   3.4320136e-15
       7333.3753   3.3874478e-15
       7334.5607   3.3918191e-15
       7335.7460   3.4306871e-15
       7336.9313   3.4167853e-15
       7338.1167   3.4259366e-15
       7339.3020   3.4461020e-15
       7340.4874   3.4532679e-15
       7341.6727   3.4569811e-15
       7342.8580   3.4377754e-15
       7344.0434   3.4063000e-15
       7345.2287   3.4466946e-15
       7346.4140   3.4844509e-15
       7347.5994   3.4823381e-15
       7348.7847   3.4675508e-15
       7349.9700   3.4373225e-15
       7351.1554   3.4560644e-15
       7352.3407   3.4805661e-15
       7353.5260   3.4484881e-15
       7354.7114   3.4757212e-15
       7355.8967   3.5129308e-15
       7357.0820   3.4663952e-15
       7358.2674   3.4312780e-15
       7359.4527   3.4625563e-15
       7360.6380   3.4890463e-15
       7361.8234   3.4697921e-15
       7363.0087   3.4904451e-15
       7364.1940   3.4712491e-15
       7365.3794   3.4621987e-15
       7366.5647   3.4658299e-15
       7367.7500   3.4658785e-15
       7368.9354   3.4644572e-15
       7370.1207   3.4917864e-15
       7371.3060   3.5002124e-15
       7372.4914   3.4992529e-15
       7373.6767   3.5112473e-15
       7374.8620   3.5056736e-15
       7376.0474   3.4797016e-15
       7377.2327   3.4598629e-15
       7378.4180   3.4561071e-15
       7379.6034   3.4663015e-15
       7380.7887   3.4560573e-15
       7381.9740   3.4450973e-15
       7383.1594   3.4492797e-15
       7384.3447   3.4333499e-15
       7385.5300   3.4424105e-15
       7386.7154   3.4160340e-15
       7387.9007   3.4304320e-15
       7389.0860   3.4462940e-15
       7390.2714   3.4302056e-15
       7391.4567   3.4151592e-15
       7392.6420   3.4118796e-15
       7393.8274   3.3665805e-15
       7395.0127   3.3430630e-15
       7396.1980   3.3764538e-15
       7397.3834   3.3601621e-15
       7398.5687   3.3304353e-15
       7399.7540   3.3493936e-15
       7400.9394   3.3233155e-15
       7402.1247   3.3061838e-15
       7403.3100   3.3017217e-15
       7404.4954   3.3178841e-15
       7405.6807   3.3062895e-15
       7406.8660   3.2589043e-15
       7408.0514   3.2893079e-15
       7409.2367   3.3070306e-15
       7410.4221   3.2561836e-15
       7411.6074   3.2244912e-15
       7412.7927   3.2272783e-15
       7413.9781   3.2125501e-15
       7415.1634   3.1871513e-15
       7416.3487   3.1435004e-15
       7417.5341   3.1581483e-15
       7418.7194   3.1664016e-15
       7419.9047   3.1324320e-15
       7421.0901   3.0945332e-15
       7422.2754   3.1037546e-15
       7423.4607   3.0894481e-15
       7424.6461   3.0905779e-15
       7425.8314   3.0733284e-15
       7427.0167   3.0761443e-15
       7428.2021   3.0819097e-15
       7429.3874   3.0512703e-15
       7430.5727   3.0468648e-15
       7431.7581   3.0555840e-15
       7432.9434   3.0451823e-15
       7434.1287   3.0353670e-15
       7435.3141   2.9994309e-15
       7436.4994   3.0070008e-15
       7437.6847   3.0178805e-15
       7438.8701   2.9965426e-15
       7440.0554   2.9753641e-15
       7441.2407   2.9660332e-15
       7442.4261   2.9798820e-15
       7443.6114   2.9693511e-15
       7444.7967   2.9801308e-15
       7445.9821   2.9543925e-15
       7447.1674   2.9436751e-15
       7448.3527   2.9459184e-15
       7449.5381   2.9235705e-15
       7450.7234   2.9209938e-15
       7451.9087   2.9260456e-15
       7453.0941   2.8905155e-15
       7454.2794   2.8804863e-15
       7455.4647   2.8794239e-15
       7456.6501   2.8595409e-15
       7457.8354   2.8706564e-15
       7459.0207   2.8665278e-15
       7460.2061   2.8616967e-15
       7461.3914   2.8388270e-15
       7462.5767   2.7955527e-15
       7463.7621   2.7814368e-15
       7464.9474   2.7909058e-15
       7466.1327   2.7812653e-15
       7467.3181   2.7809841e-15
       7468.5034   2.7772613e-15
       7469.6887   2.7558966e-15
       7470.8741   2.7407303e-15
       7472.0594   2.7526087e-15
       7473.2447   2.7660491e-15
       7474.4301   2.7396884e-15
       7475.6154   2.7300688e-15
       7476.8007   2.7312387e-15
       7477.9861   2.7126744e-15
       7479.1714   2.6932243e-15
       7480.3568   2.7016917e-15
       7481.5421   2.6992724e-15
       7482.7274   2.6838006e-15
       7483.9128   2.6654470e-15
       7485.0981   2.6868903e-15
       7486.2834   2.6831567e-15
       7487.4688   2.6681796e-15
       7488.6541   2.6630130e-15
       7489.8394   2.6558766e-15
       7491.0248   2.6625827e-15
       7492.2101   2.6440471e-15
       7493.3954   2.6180360e-15
       7494.5808   2.6250441e-15
       7495.7661   2.6200521e-15
       7496.9514   2.6198319e-15
       7498.1368   2.5996739e-15
       7499.3221   2.5797027e-15
       7500.5074   2.5786965e-15
       7501.6928   2.5490251e-15
       7502.8781   2.5289150e-15
       7504.0634   2.5135720e-15
       7505.2488   2.5069570e-15
       7506.4341   2.4806284e-15
       7507.6194   2.4717868e-15
       7508.8048   2.4707404e-15
       7509.9901   2.4464734e-15
       7511.1754   2.4420512e-15
       7512.3608   2.4278328e-15
       7513.5461   2.4006389e-15
       7514.7314   2.4126946e-15
       7515.9168   2.3714919e-15
       7517.1021   2.3770836e-15
       7518.2874   2.3584912e-15
       7519.4728   2.3668682e-15
       7520.6581   2.3781031e-15
       7521.8434   2.3444913e-15
       7523.0288   2.3209331e-15
       7524.2141   2.3264709e-15
       7525.3994   2.3150927e-15
       7526.5848   2.3172113e-15
       7527.7701   2.3116218e-15
       7528.9554   2.2707889e-15
       7530.1408   2.2603222e-15
       7531.3261   2.2694937e-15
       7532.5114   2.2465106e-15
       7533.6968   2.2116834e-15
       7534.8821   2.2405323e-15
       7536.0674   2.2626760e-15
       7537.2528   2.2467684e-15
       7538.4381   2.2267624e-15
       7539.6234   2.2102598e-15
       7540.8088   2.1951290e-15
       7541.9941   2.1955459e-15
       7543.1794   2.1933493e-15
       7544.3648   2.1728118e-15
       7545.5501   2.1655521e-15
       7546.7354   2.1607101e-15
       7547.9208   2.1959789e-15
       7549.1061   2.1855347e-15
       7550.2915   2.1582440e-15
       7551.4768   2.1669771e-15
       7552.6621   2.1497502e-15
       7553.8475   2.1480677e-15
       7555.0328   2.1909363e-15
       7556.2181   2.1910567e-15
       7557.4035   2.1759554e-15
       7558.5888   2.1418943e-15
       7559.7741   2.1535997e-15
       7560.9595   2.1612453e-15
       7562.1448   2.1514975e-15
       7563.3301   2.1762414e-15
       7564.5155   2.2081259e-15
       7565.7008   2.2690817e-15
       7566.8861   2.2288500e-15
       7568.0715   2.1996529e-15
       7569.2568   2.2273162e-15
       7570.4421   2.2237168e-15
       7571.6275   2.2336211e-15
       7572.8128   2.2504732e-15
       7573.9981   2.2584814e-15
       7575.1835   2.2758884e-15
       7576.3688   2.2673149e-15
       7577.5541   2.2545176e-15
       7578.7395   2.3335950e-15
       7579.9248   2.3417318e-15
       7581.1101   2.2959815e-15
       7582.2955   2.2993128e-15
       7583.4808   2.3530675e-15
       7584.6661   2.3655869e-15
       7585.8515   2.3725191e-15
       7587.0368   2.3888268e-15
       7588.2221   2.3996001e-15
       7589.4075   2.4254407e-15
       7590.5928   2.4501149e-15
       7591.7781   2.5003735e-15
       7592.9635   2.6028529e-15
       7594.1488   2.6798629e-15
       7595.3341   2.7118888e-15
       7596.5195   2.6111451e-15
       7597.7048   2.5368871e-15
       7598.8901   2.6566922e-15
       7600.0755   2.7062586e-15
       7601.2608   2.6410840e-15
       7602.4461   2.6146480e-15
       7603.6315   2.6368360e-15
       7604.8168   2.5836771e-15
       7606.0021   2.5352904e-15
       7607.1875   2.5343289e-15
       7608.3728   2.5278469e-15
       7609.5581   2.4959374e-15
       7610.7435   2.5521867e-15
       7611.9288   2.6188742e-15
       7613.1141   2.6110898e-15
       7614.2995   2.5326275e-15
       7615.4848   2.4828616e-15
       7616.6702   2.5557741e-15
       7617.8555   2.6863185e-15
       7619.0408   2.8416817e-15
       7620.2262   2.9658127e-15
       7621.4115   2.9802376e-15
       7622.5968   2.9192573e-15
       7623.7822   2.8864966e-15
       7624.9675   2.8836934e-15
       7626.1528   2.8796230e-15
       7627.3382   2.8777831e-15
       7628.5235   2.8548301e-15
       7629.7088   2.8179903e-15
       7630.8942   2.8687858e-15
       7632.0795   2.9253273e-15
       7633.2648   2.9060242e-15
       7634.4502   2.9315073e-15
       7635.6355   2.9396933e-15
       7636.8208   2.9489233e-15
       7638.0062   2.9689517e-15
       7639.1915   2.9691046e-15
       7640.3768   2.9370071e-15
       7641.5622   2.9235069e-15
       7642.7475   2.9900167e-15
       7643.9328   3.0470564e-15
       7645.1182   3.0057753e-15
       7646.3035   3.0079044e-15
       7647.4888   3.0558449e-15
       7648.6742   3.0914666e-15
       7649.8595   3.0846340e-15
       7651.0448   3.0249937e-15
       7652.2302   3.0945228e-15
       7653.4155   3.1861125e-15
       7654.6008   3.1317195e-15
       7655.7862   3.0714395e-15
       7656.9715   3.1108518e-15
       7658.1568   3.2406129e-15
       7659.3422   3.2662226e-15
       7660.5275   3.1931043e-15
       7661.7128   3.1592914e-15
       7662.8982   3.2412153e-15
       7664.0835   3.3358556e-15
       7665.2688   3.2923058e-15
       7666.4542   3.2440774e-15
       7667.6395   3.2380331e-15
       7668.8248   3.2632980e-15
       7670.0102   3.2691843e-15
       7671.1955   3.2679218e-15
       7672.3808   3.2748068e-15
       7673.5662   3.2507620e-15
       7674.7515   3.2478126e-15
       7675.9368   3.3237488e-15
       7677.1222   3.3318246e-15
       7678.3075   3.2757778e-15
       7679.4928   3.2850509e-15
       7680.6782   3.3631610e-15
       7681.8635   3.3850320e-15
       7683.0488   3.3169226e-15
       7684.2342   3.3067051e-15
       7685.4195   3.3320532e-15
       7686.6049   3.2906127e-15
       7687.7902   3.3229664e-15
       7688.9755   3.3982806e-15
       7690.1609   3.3618199e-15
       7691.3462   3.3659096e-15
       7692.5315   3.3756829e-15
       7693.7169   3.3967225e-15
       7694.9022   3.4407345e-15
       7696.0875   3.4382327e-15
       7697.2729   3.3872058e-15
       7698.4582   3.3861802e-15
       7699.6435   3.4289349e-15
       7700.8289   3.4138322e-15
       7702.0142   3.4335731e-15
       7703.1995   3.4100383e-15
       7704.3849   3.4165674e-15
       7705.5702   3.3860728e-15
       7706.7555   3.3789521e-15
       7707.9409   3.4592005e-15
       7709.1262   3.5057430e-15
       7710.3115   3.4573517e-15
       7711.4969   3.3931137e-15
       7712.6822   3.4093378e-15
       7713.8675   3.4600209e-15
       7715.0529   3.4739245e-15
       7716.2382   3.4347698e-15
       7717.4235   3.4352613e-15
       7718.6089   3.4482552e-15
       7719.7942   3.4577526e-15
       7720.9795   3.4801820e-15
       7722.1649   3.4596115e-15
       7723.3502   3.5169901e-15
       7724.5355   3.4928989e-15
       7725.7209   3.4884574e-15
       7726.9062   3.5183641e-15
       7728.0915   3.4982183e-15
       7729.2769   3.4946578e-15
       7730.4622   3.4724956e-15
       7731.6475   3.4487931e-15
       7732.8329   3.4893141e-15
       7734.0182   3.4959535e-15
       7735.2035   3.4963333e-15
       7736.3889   3.5175705e-15
       7737.5742   3.5342648e-15
       7738.7595   3.5273211e-15
       7739.9449   3.4871735e-15
       7741.1302   3.5015625e-15
       7742.3155   3.5478776e-15
       7743.5009   3.5503540e-15
       7744.6862   3.5271954e-15
       7745.8715   3.5349544e-15
       7747.0569   3.5532681e-15
       7748.2422   3.5564585e-15
       7749.4275   3.5546515e-15
       7750.6129   3.5561983e-15
       7751.7982   3.5332294e-15
       7752.9835   3.5572794e-15
       7754.1689   3.5860079e-15
       7755.3542   3.5522245e-15
       7756.5396   3.5578700e-15
       7757.7249   3.5608646e-15
       7758.9102   3.5863381e-15
       7760.0956   3.5856887e-15
       7761.2809   3.5817625e-15
       7762.4662   3.5869166e-15
       7763.6516   3.5831950e-15
       7764.8369   3.6440462e-15
       7766.0222   3.6698692e-15
       7767.2076   3.6236980e-15
       7768.3929   3.6179231e-15
       7769.5782   3.6297713e-15
       7770.7636   3.6198825e-15
       7771.9489   3.6193816e-15
       7773.1342   3.6337849e-15
       7774.3196   3.6461682e-15
       7775.5049   3.6624078e-15
       7776.6902   3.6486367e-15
       7777.8756   3.6517189e-15
       7779.0609   3.6598387e-15
       7780.2462   3.6480894e-15
       7781.4316   3.6598206e-15
       7782.6169   3.6482872e-15
       7783.8022   3.6674342e-15
       7784.9876   3.6959889e-15
       7786.1729   3.6483745e-15
       7787.3582   3.6716871e-15
       7788.5436   3.6917128e-15
       7789.7289   3.6381868e-15
       7790.9142   3.6535535e-15
       7792.0996   3.6953906e-15
       7793.2849   3.6530173e-15
       7794.4702   3.6613826e-15
       7795.6556   3.6674642e-15
       7796.8409   3.6672371e-15
       7798.0262   3.6569284e-15
       7799.2116   3.6649971e-15
       7800.3969   3.6555583e-15
       7801.5822   3.6960700e-15
       7802.7676   3.7238360e-15
       7803.9529   3.6867039e-15
       7805.1382   3.6968310e-15
       7806.3236   3.6996671e-15
       7807.5089   3.6561209e-15
       7808.6942   3.6852254e-15
       7809.8796   3.6862780e-15
       7811.0649   3.6741428e-15
       7812.2502   3.6594963e-15
       7813.4356   3.6712014e-15
       7814.6209   3.7175658e-15
       7815.8062   3.7391819e-15
       7816.9916   3.7257107e-15
       7818.1769   3.7304690e-15
       7819.3622   3.7044582e-15
       7820.5476   3.7108944e-15
       7821.7329   3.7435200e-15
       7822.9182   3.7337589e-15
       7824.1036   3.7141393e-15
       7825.2889   3.7174334e-15
       7826.4743   3.7201931e-15
       7827.6596   3.7216895e-15
       7828.8449   3.7335168e-15
       7830.0303   3.7491092e-15
       7831.2156   3.7361043e-15
       7832.4009   3.7412983e-15
       7833.5863   3.7224278e-15
       7834.7716   3.7050628e-15
       7835.9569   3.7037603e-15
       7837.1423   3.7162286e-15
       7838.3276   3.7475231e-15
       7839.5129   3.7480874e-15
       7840.6983   3.7310015e-15
       7841.8836   3.7209125e-15
       7843.0689   3.7177253e-15
       7844.2543   3.7367715e-15
       7845.4396   3.7217928e-15
       7846.6249   3.6740746e-15
       7847.8103   3.6762884e-15
       7848.9956   3.7120075e-15
       7850.1809   3.7143627e-15
       7851.3663   3.6791595e-15
       7852.5516   3.6605370e-15
       7853.7369   3.6254783e-15
       7854.9223   3.6284404e-15
       7856.1076   3.6547446e-15
       7857.2929   3.6519974e-15
       7858.4783   3.6390173e-15
       7859.6636   3.6296217e-15
       7860.8489   3.6485517e-15
       7862.0343   3.6148912e-15
       7863.2196   3.5946462e-15
       7864.4049   3.5857174e-15
       7865.5903   3.5546743e-15
       7866.7756   3.5820178e-15
       7867.9609   3.5733050e-15
       7869.1463   3.5398910e-15
       7870.3316   3.5276860e-15
       7871.5169   3.5169391e-15
       7872.7023   3.5436729e-15
       7873.8876   3.5823933e-15
       7875.0729   3.5327755e-15
       7876.2583   3.4826066e-15
       7877.4436   3.5007895e-15
       7878.6289   3.5174043e-15
       7879.8143   3.5140014e-15
       7880.9996   3.4608319e-15
       7882.1849   3.4207252e-15
       7883.3703   3.4308847e-15
       7884.5556   3.4710944e-15
       7885.7409   3.4647753e-15
       7886.9263   3.4266870e-15
       7888.1116   3.4162359e-15
       7889.2969   3.4125680e-15
       7890.4823   3.3591202e-15
       7891.6676   3.3660566e-15
       7892.8530   3.3982656e-15
       7894.0383   3.3835601e-15
       7895.2236   3.3200538e-15
       7896.4090   3.3358950e-15
       7897.5943   3.3729579e-15
       7898.7796   3.3978568e-15
       7899.9650   3.3579395e-15
       7901.1503   3.3133443e-15
       7902.3356   3.2907365e-15
       7903.5210   3.2997337e-15
       7904.7063   3.3058735e-15
       7905.8916   3.2598224e-15
       7907.0770   3.2435287e-15
       7908.2623   3.2135096e-15
       7909.4476   3.1906784e-15
       7910.6330   3.2053076e-15
       7911.8183   3.2069920e-15
       7913.0036   3.1840974e-15
       7914.1890   3.1950561e-15
       7915.3743   3.1565873e-15
       7916.5596   3.1317320e-15
       7917.7450   3.1336282e-15
       7918.9303   3.1841847e-15
       7920.1156   3.1837134e-15
       7921.3010   3.1376844e-15
       7922.4863   3.1002872e-15
       7923.6716   3.0833973e-15
       7924.8570   3.0999739e-15
       7926.0423   3.1043315e-15
       7927.2276   3.0755451e-15
       7928.4130   3.0673666e-15
       7929.5983   3.0075153e-15
       7930.7836   2.9999959e-15
       7931.9690   3.0380595e-15
       7933.1543   3.0217260e-15
       7934.3396   3.0181954e-15
       7935.5250   3.0095728e-15
       7936.7103   2.9825567e-15
       7937.8956   2.9685506e-15
       7939.0810   2.9813379e-15
       7940.2663   2.9749094e-15
       7941.4516   2.9603123e-15
       7942.6370   2.9426233e-15
       7943.8223   2.9109022e-15
       7945.0076   2.9185442e-15
       7946.1930   2.9053454e-15
       7947.3783   2.8823479e-15
       7948.5636   2.8755922e-15
       7949.7490   2.8648798e-15
       7950.9343   2.8623104e-15
       7952.1196   2.8526943e-15
       7953.3050   2.8568245e-15
       7954.4903   2.8415920e-15
       7955.6756   2.8131216e-15
       7956.8610   2.8163263e-15
       7958.0463   2.8061723e-15
       7959.2316   2.8065798e-15
       7960.4170   2.7764494e-15
       7961.6023   2.7349776e-15
       7962.7877   2.7443968e-15
       7963.9730   2.7313248e-15
       7965.1583   2.7085866e-15
       7966.3437   2.6861121e-15
       7967.5290   2.7153582e-15
       7968.7143   2.7013236e-15
       7969.8997   2.7047202e-15
       7971.0850   2.6751353e-15
       7972.2703   2.6622403e-15
       7973.4557   2.6436923e-15
       7974.6410   2.6031896e-15
       7975.8263   2.5814384e-15
       7977.0117   2.5881974e-15
       7978.1970   2.6531986e-15
       7979.3823   2.6363176e-15
       7980.5677   2.5850290e-15
       7981.7530   2.5743412e-15
       7982.9383   2.5625896e-15
       7984.1237   2.5694760e-15
       7985.3090   2.5465434e-15
       7986.4943   2.5388642e-15
       7987.6797   2.5313460e-15
       7988.8650   2.5505961e-15
       7990.0503   2.5560225e-15
       7991.2357   2.5529681e-15
       7992.4210   2.5305692e-15
       7993.6063   2.5197819e-15
       7994.7917   2.5274416e-15
       7995.9770   2.5021023e-15
       7997.1623   2.4896812e-15
       7998.3477   2.4888261e-15
       7999.5330   2.4819378e-15
       8000.7183   2.4974964e-15
       8001.9037   2.4736124e-15
       8003.0890   2.4551349e-15
       8004.2743   2.4492893e-15
       8005.4597   2.4786100e-15
       8006.6450   2.4591368e-15
       8007.8303   2.3981118e-15
       8009.0157   2.4122666e-15
       8010.2010   2.4264197e-15
       8011.3863   2.4119540e-15
       8012.5717   2.3934286e-15
       8013.7570   2.4149185e-15
       8014.9423   2.3856653e-15
       8016.1277   2.3556029e-15
       8017.3130   2.3713445e-15
       8018.4983   2.3502655e-15
       8019.6837   2.3369990e-15
       8020.8690   2.3424493e-15
       8022.0543   2.3029977e-15
       8023.2397   2.2995739e-15
       8024.4250   2.3177692e-15
       8025.6103   2.2754607e-15
       8026.7957   2.2707433e-15
       8027.9810   2.2651506e-15
       8029.1663   2.2485591e-15
       8030.3517   2.2230440e-15
       8031.5370   2.2121899e-15
       8032.7224   2.1934024e-15
       8033.9077   2.1643275e-15
       8035.0930   2.1649262e-15
       8036.2784   2.1822757e-15
       8037.4637   2.1747573e-15
       8038.6490   2.1266290e-15
       8039.8344   2.1107717e-15
       8041.0197   2.0802290e-15
       8042.2050   2.0797285e-15
       8043.3904   2.0973766e-15
       8044.5757   2.0942709e-15
       8045.7610   2.0799730e-15
       8046.9464   2.0415612e-15
       8048.1317   2.0391779e-15
       8049.3170   2.0438137e-15
       8050.5024   2.0521135e-15
       8051.6877   2.0204388e-15
       8052.8730   1.9846739e-15
       8054.0584   1.9822136e-15
       8055.2437   1.9807086e-15
       8056.4290   1.9669364e-15
       8057.6144   1.9513848e-15
       8058.7997   1.9470479e-15
       8059.9850   1.9183166e-15
       8061.1704   1.8992111e-15
       8062.3557   1.8765472e-15
       8063.5410   1.8676410e-15
       8064.7264   1.8709103e-15
       8065.9117   1.8590536e-15
       8067.0970   1.8158561e-15
       8068.2824   1.8005742e-15
       8069.4677   1.8003117e-15
       8070.6530   1.8088455e-15
       8071.8384   1.7801727e-15
       8073.0237   1.7781631e-15
       8074.2090   1.7549558e-15
       8075.3944   1.7233381e-15
       8076.5797   1.7428403e-15
       8077.7650   1.7212607e-15
       8078.9504   1.7165337e-15
       8080.1357   1.7390368e-15
       8081.3210   1.7204693e-15
       8082.5064   1.7086854e-15
       8083.6917   1.6989751e-15
       8084.8770   1.6539759e-15
       8086.0624   1.6340342e-15
       8087.2477   1.6063761e-15
       8088.4330   1.6115050e-15
       8089.6184   1.6074712e-15
       8090.8037   1.5955965e-15
       8091.9890   1.5838745e-15
       8093.1744   1.5594203e-15
       8094.3597   1.5386014e-15
       8095.5450   1.5321899e-15
       8096.7304   1.5122506e-15
       8097.9157   1.5037664e-15
       8099.1010   1.4987378e-15
       8100.2864   1.4915877e-15
       8101.4717   1.4899159e-15
       8102.6571   1.4672333e-15
       8103.8424   1.4318948e-15
       8105.0277   1.4131072e-15
       8106.2131   1.4052984e-15
       8107.3984   1.3989823e-15
       8108.5837   1.3816165e-15
       8109.7691   1.3593948e-15
       8110.9544   1.3331820e-15
       8112.1397   1.3020364e-15
       8113.3251   1.2735005e-15
       8114.5104   1.2742070e-15
       8115.6957   1.2616743e-15
       8116.8811   1.2410428e-15
       8118.0664   1.2357117e-15
       8119.2517   1.2081232e-15
       8120.4371   1.1874027e-15
       8121.6224   1.1905441e-15
       8122.8077   1.1785191e-15
       8123.9931   1.1410994e-15
       8125.1784   1.1055830e-15
       8126.3637   1.0918078e-15
       8127.5491   1.0897879e-15
       8128.7344   1.0723809e-15
       8129.9197   1.0483110e-15
       8131.1051   1.0354315e-15
       8132.2904   1.0017820e-15
       8133.4757   9.7646769e-16
       8134.6611   9.7544036e-16
       8135.8464   9.5458826e-16
       8137.0317   9.4132255e-16
       8138.2171   9.2047106e-16
       8139.4024   9.0402151e-16
       8140.5877   8.8806575e-16
       8141.7731   8.6494380e-16
       8142.9584   8.5437171e-16
       8144.1437   8.6927108e-16
       8145.3291   8.8422385e-16
       8146.5144   8.5503166e-16
       8147.6997   8.2592250e-16
       8148.8851   8.1209024e-16
       8150.0704   7.9127511e-16
       8151.2557   8.0540727e-16
       8152.4411   8.0216028e-16
       8153.6264   7.9347728e-16
       8154.8117   7.9491287e-16
       8155.9971   7.9329358e-16
       8157.1824   7.7417190e-16
       8158.3677   7.7053225e-16
       8159.5531   7.6886423e-16
       8160.7384   7.8422362e-16
       8161.9237   7.7701638e-16
       8163.1091   7.6579474e-16
       8164.2944   7.5489645e-16
       8165.4797   7.5187404e-16
       8166.6651   7.5837913e-16
       8167.8504   7.5675968e-16
       8169.0358   7.5934581e-16
       8170.2211   7.5913925e-16
       8171.4064   7.5524479e-16
       8172.5918   7.5651021e-16
       8173.7771   7.5556804e-16
       8174.9624   7.6316354e-16
       8176.1478   7.4658813e-16
       8177.3331   7.5054256e-16
       8178.5184   7.5478314e-16
       8179.7038   7.6375801e-16
       8180.8891   7.5786466e-16
       8182.0744   7.5383611e-16
       8183.2598   7.5290105e-16
       8184.4451   7.6259161e-16
       8185.6304   7.6835572e-16
       8186.8158   7.4813961e-16
       8188.0011   7.6765538e-16
       8189.1864   7.6397146e-16
       8190.3718   7.7898796e-16
       8191.5571   7.8950734e-16
       8192.7424   7.8256212e-16
       8193.9278   7.8911667e-16
       8195.1131   8.0155821e-16
       8196.2984   8.0881371e-16
       8197.4838   7.8455952e-16
       8198.6691   7.8127253e-16
       8199.8544   7.9661386e-16
       8201.0398   7.9503594e-16
       8202.2251   8.0277098e-16
       8203.4104   8.1089647e-16
       8204.5958   8.1862605e-16
       8205.7811   8.2102288e-16
       8206.9664   8.3064266e-16
       8208.1518   8.3890703e-16
       8209.3371   8.2592438e-16
       8210.5224   8.3475861e-16
       8211.7078   8.5365215e-16
       8212.8931   8.4214410e-16
       8214.0784   8.4586837e-16
       8215.2638   8.4319781e-16
       8216.4491   8.2952648e-16
       8217.6344   8.4610285e-16
       8218.8198   8.4092150e-16
       8220.0051   8.4673316e-16
       8221.1904   8.5932466e-16
       8222.3758   8.6504618e-16
       8223.5611   8.6300433e-16
       8224.7464   8.5541426e-16
       8225.9318   8.7952307e-16
       8227.1171   8.9242126e-16
       8228.3024   8.8619311e-16
       8229.4878   8.8476456e-16
       8230.6731   8.7891270e-16
       8231.8584   8.7547738e-16
       8233.0438   8.7321319e-16
       8234.2291   8.7875375e-16
       8235.4144   8.8619259e-16
       8236.5998   8.9044725e-16
       8237.7851   8.8894392e-16
       8238.9705   8.9235027e-16
       8240.1558   9.1723872e-16
       8241.3411   9.3122141e-16
       8242.5265   9.3610765e-16
       8243.7118   9.1212896e-16
       8244.8971   9.2570074e-16
       8246.0825   9.2591341e-16
       8247.2678   9.3662218e-16
       8248.4531   9.5618443e-16
       8249.6385   9.6290197e-16
       8250.8238   9.8170378e-16
       8252.0091   9.7685095e-16
       8253.1945   9.6233164e-16
       8254.3798   9.7028075e-16
       8255.5651   9.7414066e-16
       8256.7505   9.8796510e-16
       8257.9358   1.0030578e-15
       8259.1211   1.0000918e-15
       8260.3065   1.0042134e-15
       8261.4918   9.9365882e-16
       8262.6771   1.0172466e-15
       8263.8625   1.0235710e-15
       8265.0478   1.0125955e-15
       8266.2331   1.0145720e-15
       8267.4185   1.0520989e-15
       8268.6038   1.0623013e-15
       8269.7891   1.0727477e-15
       8270.9745   1.0441234e-15
       8272.1598   1.0399245e-15
       8273.3451   1.0606294e-15
       8274.5305   1.0710976e-15
       8275.7158   1.0735010e-15
       8276.9011   1.0624632e-15
       8278.0865   1.0607438e-15
       8279.2718   1.0742499e-15
       8280.4571   1.0869672e-15
       8281.6425   1.0834591e-15
       8282.8278   1.0896479e-15
       8284.0131   1.0991763e-15
       8285.1985   1.1579806e-15
       8286.3838   1.1529787e-15
       8287.5691   1.1143443e-15
       8288.7545   1.1163421e-15
       8289.9398   1.1297535e-15
       8291.1251   1.1365121e-15
       8292.3105   1.1480738e-15
       8293.4958   1.1488633e-15
       8294.6811   1.1467817e-15
       8295.8665   1.1479428e-15
       8297.0518   1.1476980e-15
       8298.2371   1.1603302e-15
       8299.4225   1.1567759e-15
       8300.6078   1.1656437e-15
       8301.7931   1.1922400e-15
       8302.9785   1.1993658e-15
       8304.1638   1.1948322e-15
       8305.3491   1.1861324e-15
       8306.5345   1.1846396e-15
       8307.7198   1.1880392e-15
       8308.9052   1.1987718e-15
       8310.0905   1.2074944e-15
       8311.2758   1.2358269e-15
       8312.4612   1.2503888e-15
       8313.6465   1.2396758e-15
       8314.8318   1.2312667e-15
       8316.0172   1.2161726e-15
       8317.2025   1.2218918e-15
       8318.3878   1.2538550e-15
       8319.5732   1.2464829e-15
       8320.7585   1.2422890e-15
       8321.9438   1.2719914e-15
       8323.1292   1.2755576e-15
       8324.3145   1.2894165e-15
       8325.4998   1.2811573e-15
       8326.6852   1.2729998e-15
       8327.8705   1.2732320e-15
       8329.0558   1.2793077e-15
       8330.2412   1.2839730e-15
       8331.4265   1.2931529e-15
       8332.6118   1.3101105e-15
       8333.7972   1.3225696e-15
       8334.9825   1.3273777e-15
       8336.1678   1.3340044e-15
       8337.3532   1.3324694e-15
       8338.5385   1.3330159e-15
       8339.7238   1.3332017e-15
       8340.9092   1.3550587e-15
       8342.0945   1.3856083e-15
       8343.2798   1.4012981e-15
       8344.4652   1.3886565e-15
       8345.6505   1.3925509e-15
       8346.8358   1.3925999e-15
       8348.0212   1.4325435e-15
       8349.2065   1.4420370e-15
       8350.3918   1.4473784e-15
       8351.5772   1.4556124e-15
       8352.7625   1.4710155e-15
       8353.9478   1.5021583e-15
       8355.1332   1.5083207e-15
       8356.3185   1.5188263e-15
       8357.5038   1.5293486e-15
       8358.6892   1.5524056e-15
       8359.8745   1.5594174e-15
       8361.0598   1.5631625e-15
       8362.2452   1.5781691e-15
       8363.4305   1.6046268e-15
       8364.6158   1.6151497e-15
       8365.8012   1.6079064e-15
       8366.9865   1.6304380e-15
       8368.1718   1.6552606e-15
       8369.3572   1.6945269e-15
       8370.5425   1.7273801e-15
       8371.7278   1.7377754e-15
       8372.9132   1.7325836e-15
       8374.0985   1.7586579e-15
       8375.2838   1.7898735e-15
       8376.4692   1.7887086e-15
       8377.6545   1.8091178e-15
       8378.8399   1.8304749e-15
       8380.0252   1.8259555e-15
       8381.2105   1.8217708e-15
       8382.3959   1.8693707e-15
       8383.5812   1.9279843e-15
       8384.7665   1.9423970e-15
       8385.9519   1.9319283e-15
       8387.1372   1.9321362e-15
       8388.3225   1.9639636e-15
       8389.5079   1.9717059e-15
       8390.6932   1.9683557e-15
       8391.8785   1.9748549e-15
       8393.0639   2.0036203e-15
       8394.2492   2.0309110e-15
       8395.4345   2.0378558e-15
       8396.6199   2.0595717e-15
       8397.8052   2.0934276e-15
       8398.9905   2.0932618e-15
       8400.1759   2.1283167e-15
       8401.3612   2.1548114e-15
       8402.5465   2.1587485e-15
       8403.7319   2.1683204e-15
       8404.9172   2.1703721e-15
       8406.1025   2.1911831e-15
       8407.2879   2.2138461e-15
       8408.4732   2.2125197e-15
       8409.6585   2.2432207e-15
       8410.8439   2.2833209e-15
       8412.0292   2.3160272e-15
       8413.2145   2.3238941e-15
       8414.3999   2.3026350e-15
       8415.5852   2.3167096e-15
       8416.7705   2.3279563e-15
       8417.9559   2.3578682e-15
       8419.1412   2.3892235e-15
       8420.3265   2.3875644e-15
       8421.5119   2.3876789e-15
       8422.6972   2.4143544e-15
       8423.8825   2.4433297e-15
       8425.0679   2.4716583e-15
       8426.2532   2.4752434e-15
       8427.4385   2.5072239e-15
       8428.6239   2.5117528e-15
       8429.8092   2.5477530e-15
       8430.9945   2.5721165e-15
       8432.1799   2.6044989e-15
       8433.3652   2.6345651e-15
       8434.5505   2.6606138e-15
       8435.7359   2.6484165e-15
       8436.9212   2.6751932e-15
       8438.1065   2.6727449e-15
       8439.2919   2.6867471e-15
       8440.4772   2.7309580e-15
       8441.6625   2.7359787e-15
       8442.8479   2.7757592e-15
       8444.0332   2.7778867e-15
       8445.2186   2.8075995e-15
       8446.4039   2.8279985e-15
       8447.5892   2.8448607e-15
       8448.7746   2.8873835e-15
       8449.9599   2.8934808e-15
       8451.1452   2.9111884e-15
       8452.3306   2.9404549e-15
       8453.5159   2.9268301e-15
       8454.7012   2.9434781e-15
       8455.8866   2.9885142e-15
       8457.0719   3.0208125e-15
       8458.2572   3.0082628e-15
       8459.4426   3.0161854e-15
       8460.6279   3.0695710e-15
       8461.8132   3.0971558e-15
       8462.9986   3.1177243e-15
       8464.1839   3.1383363e-15
       8465.3692   3.1609997e-15
       8466.5546   3.1922214e-15
       8467.7399   3.2097728e-15
       8468.9252   3.2169489e-15
       8470.1106   3.2462464e-15
       8471.2959   3.2721798e-15
       8472.4812   3.2639975e-15
       8473.6666   3.2672502e-15
       8474.8519   3.2900056e-15
       8476.0372   3.3227814e-15
       8477.2226   3.3379019e-15
       8478.4079   3.3634389e-15
       8479.5932   3.4005964e-15
       8480.7786   3.4193824e-15
       8481.9639   3.4484894e-15
       8483.1492   3.4588746e-15
       8484.3346   3.4440965e-15
       8485.5199   3.4946217e-15
       8486.7052   3.5087358e-15
       8487.8906   3.5103214e-15
       8489.0759   3.5331225e-15
       8490.2612   3.5760473e-15
       8491.4466   3.6136159e-15
       8492.6319   3.5990902e-15
       8493.8172   3.6367930e-15
       8495.0026   3.6768498e-15
       8496.1879   3.6556285e-15
       8497.3732   3.6687630e-15
       8498.5586   3.6899711e-15
       8499.7439   3.7073996e-15
       8500.9292   3.7341606e-15
       8502.1146   3.7273100e-15
       8503.2999   3.7576983e-15
       8504.4852   3.7858254e-15
       8505.6706   3.8008215e-15
       8506.8559   3.8706393e-15
       8508.0412   3.8527420e-15
       8509.2266   3.8445307e-15
       8510.4119   3.8876461e-15
       8511.5972   3.8948392e-15
       8512.7826   3.8865710e-15
       8513.9679   3.9373922e-15
       8515.1533   3.9606755e-15
       8516.3386   3.9893176e-15
       8517.5239   3.9854086e-15
       8518.7093   4.0169278e-15
       8519.8946   4.0424181e-15
       8521.0799   4.0211147e-15
       8522.2653   4.0220621e-15
       8523.4506   4.0509002e-15
       8524.6359   4.0588142e-15
       8525.8213   4.0781745e-15
       8527.0066   4.1000088e-15
       8528.1919   4.1266304e-15
       8529.3773   4.1752053e-15
       8530.5626   4.1574806e-15
       8531.7479   4.1545862e-15
       8532.9333   4.2053294e-15
       8534.1186   4.2038222e-15
       8535.3039   4.1965769e-15
       8536.4893   4.2042450e-15
       8537.6746   4.2069090e-15
       8538.8599   4.2279198e-15
       8540.0453   4.2478360e-15
       8541.2306   4.2679355e-15
       8542.4159   4.2908478e-15
       8543.6013   4.2904914e-15
       8544.7866   4.3292431e-15
       8545.9719   4.3413772e-15
       8547.1573   4.3537013e-15
       8548.3426   4.3845113e-15
       8549.5279   4.3767487e-15
       8550.7133   4.3787918e-15
       8551.8986   4.3839474e-15
       8553.0839   4.4189243e-15
       8554.2693   4.4344638e-15
       8555.4546   4.4386518e-15
       8556.6399   4.4319785e-15
       8557.8253   4.4319049e-15
       8559.0106   4.4425120e-15
       8560.1959   4.4622872e-15
       8561.3813   4.4909633e-15
       8562.5666   4.4960693e-15
       8563.7519   4.5364183e-15
       8564.9373   4.5223528e-15
       8566.1226   4.5557530e-15
       8567.3079   4.5406697e-15
       8568.4933   4.5202672e-15
       8569.6786   4.5531251e-15
       8570.8639   4.5681985e-15
       8572.0493   4.5743418e-15
       8573.2346   4.5324672e-15
       8574.4199   4.5377075e-15
       8575.6053   4.5618046e-15
       8576.7906   4.5331633e-15
       8577.9759   4.5489098e-15
       8579.1613   4.5644347e-15
       8580.3466   4.5409939e-15
       8581.5319   4.5325743e-15
       8582.7173   4.5705389e-15
       8583.9026   4.5711446e-15
       8585.0880   4.5869470e-15
       8586.2733   4.5699809e-15
       8587.4586   4.5979740e-15
       8588.6440   4.6223129e-15
       8589.8293   4.6049063e-15
       8591.0146   4.5933023e-15
       8592.2000   4.5767807e-15
       8593.3853   4.5750926e-15
       8594.5706   4.5939735e-15
       8595.7560   4.6290736e-15
       8596.9413   4.6136022e-15
       8598.1266   4.6205201e-15
       8599.3120   4.6199592e-15
       8600.4973   4.6398834e-15
       8601.6826   4.6517721e-15
       8602.8680   4.6215991e-15
       8604.0533   4.6056033e-15
       8605.2386   4.6150256e-15
       8606.4240   4.5908475e-15
       8607.6093   4.6389611e-15
       8608.7946   4.6540994e-15
       8609.9800   4.6173161e-15
       8611.1653   4.5903778e-15
       8612.3506   4.6271992e-15
       8613.5360   4.6301889e-15
       8614.7213   4.6607171e-15
       8615.9066   4.5972917e-15
       8617.0920   4.5855974e-15
       8618.2773   4.6166150e-15
       8619.4626   4.5746239e-15
       8620.6480   4.5745337e-15
       8621.8333   4.5630511e-15
       8623.0186   4.5667861e-15
       8624.2040   4.5915332e-15
       8625.3893   4.5915407e-15
       8626.5746   4.5836619e-15
       8627.7600   4.5487543e-15
       8628.9453   4.5511755e-15
       8630.1306   4.5467349e-15
       8631.3160   4.5589197e-15
       8632.5013   4.6040832e-15
       8633.6866   4.5858360e-15
       8634.8720   4.5644261e-15
       8636.0573   4.5318377e-15
       8637.2426   4.4966345e-15
       8638.4280   4.5012672e-15
       8639.6133   4.5017246e-15
       8640.7986   4.5199733e-15
       8641.9840   4.5309416e-15
       8643.1693   4.5144522e-15
       8644.3546   4.4946069e-15
       8645.5400   4.4787038e-15
       8646.7253   4.4509965e-15
       8647.9106   4.4726226e-15
       8649.0960   4.4580302e-15
       8650.2813   4.4322223e-15
       8651.4666   4.4549798e-15
       8652.6520   4.4686085e-15
       8653.8373   4.4602636e-15
       8655.0227   4.4589305e-15
       8656.2080   4.4429314e-15
       8657.3933   4.4287957e-15
       8658.5787   4.4277508e-15
       8659.7640   4.4489665e-15
       8660.9493   4.4435578e-15
       8662.1347   4.4183992e-15
       8663.3200   4.3848591e-15
       8664.5053   4.3793020e-15
       8665.6907   4.4013027e-15
       8666.8760   4.4217226e-15
       8668.0613   4.4016248e-15
       8669.2467   4.3961378e-15
       8670.4320   4.3590936e-15
       8671.6173   4.3385900e-15
       8672.8027   4.3617755e-15
       8673.9880   4.3339855e-15
       8675.1733   4.3112624e-15
       8676.3587   4.3150192e-15
       8677.5440   4.3275314e-15
       8678.7293   4.3306292e-15
       8679.9147   4.3207790e-15
       8681.1000   4.3117229e-15
       8682.2853   4.3225177e-15
       8683.4707   4.2931015e-15
       8684.6560   4.2720853e-15
       8685.8413   4.2429398e-15
       8687.0267   4.2512918e-15
       8688.2120   4.2904256e-15
       8689.3973   4.2137809e-15
       8690.5827   4.2209873e-15
       8691.7680   4.2510096e-15
       8692.9533   4.2475519e-15
       8694.1387   4.2756748e-15
       8695.3240   4.2756169e-15
       8696.5093   4.2629256e-15
       8697.6947   4.2549156e-15
       8698.8800   4.2624547e-15
       8700.0653   4.2505829e-15
       8701.2507   4.2181682e-15
       8702.4360   4.1864569e-15
       8703.6213   4.1776843e-15
       8704.8067   4.1565302e-15
       8705.9920   4.1250157e-15
       8707.1773   4.1357861e-15
       8708.3627   4.1182198e-15
       8709.5480   4.0988917e-15
       8710.7333   4.0998379e-15
       8711.9187   4.0959683e-15
       8713.1040   4.1146204e-15
       8714.2893   4.1286481e-15
       8715.4747   4.1118217e-15
       8716.6600   4.0588029e-15
       8717.8453   4.0449435e-15
       8719.0307   4.0826082e-15
       8720.2160   4.0762500e-15
       8721.4014   4.0418648e-15
       8722.5867   4.0085085e-15
       8723.7720   4.0061802e-15
       8724.9574   3.9784558e-15
       8726.1427   3.9528397e-15
       8727.3280   3.9611011e-15
       8728.5134   3.9643731e-15
       8729.6987   3.9728551e-15
       8730.8840   3.9366639e-15
       8732.0694   3.9260499e-15
       8733.2547   3.9371822e-15
       8734.4400   3.9172443e-15
       8735.6254   3.9259776e-15
       8736.8107   3.9064284e-15
       8737.9960   3.8839604e-15
       8739.1814   3.8525884e-15
       8740.3667   3.8727949e-15
       8741.5520   3.8379644e-15
       8742.7374   3.8009468e-15
       8743.9227   3.8005520e-15
       8745.1080   3.7957466e-15
       8746.2934   3.8040785e-15
       8747.4787   3.7842170e-15
       8748.6640   3.7898615e-15
       8749.8494   3.7803053e-15
       8751.0347   3.7351840e-15
       8752.2200   3.7091886e-15
       8753.4054   3.7062772e-15
       8754.5907   3.6639451e-15
       8755.7760   3.6551082e-15
       8756.9614   3.6336956e-15
       8758.1467   3.6395909e-15
       8759.3320   3.6334408e-15
       8760.5174   3.5985095e-15
       8761.7027   3.5352856e-15
       8762.8880   3.5657997e-15
       8764.0734   3.5801157e-15
       8765.2587   3.5583881e-15
       8766.4440   3.5488106e-15
       8767.6294   3.5401863e-15
       8768.8147   3.4999270e-15
       8770.0000   3.4862305e-15
       8771.1854   3.5014925e-15
       8772.3707   3.4769487e-15
       8773.5560   3.4735180e-15
       8774.7414   3.4769625e-15
       8775.9267   3.4474175e-15
       8777.1120   3.4459922e-15
       8778.2974   3.4202675e-15
       8779.4827   3.4088375e-15
       8780.6680   3.4044244e-15
       8781.8534   3.3881805e-15
       8783.0387   3.3762880e-15
       8784.2240   3.3509404e-15
       8785.4094   3.3440285e-15
       8786.5947   3.3136032e-15
       8787.7800   3.2870503e-15
       8788.9654   3.2970081e-15
       8790.1507   3.3134131e-15
       8791.3361   3.3007704e-15
       8792.5214   3.2671957e-15
       8793.7067   3.2626717e-15
       8794.8921   3.2744964e-15
       8796.0774   3.2630240e-15
       8797.2627   3.2325651e-15
       8798.4481   3.2220087e-15
       8799.6334   3.2146358e-15
       8800.8187   3.1871967e-15
       8802.0041   3.1804846e-15
       8803.1894   3.1688413e-15
       8804.3747   3.1440361e-15
       8805.5601   3.1376739e-15
       8806.7454   3.1482777e-15
       8807.9307   3.1283354e-15
       8809.1161   3.0851312e-15
       8810.3014   3.0998430e-15
       8811.4867   3.0942092e-15
       8812.6721   3.0665388e-15
       8813.8574   3.0455389e-15
       8815.0427   3.0267908e-15
       8816.2281   3.0065939e-15
       8817.4134   2.9998031e-15
       8818.5987   2.9524091e-15
       8819.7841   2.9503077e-15
       8820.9694   2.9398459e-15
       8822.1547   2.9458763e-15
       8823.3401   2.9372717e-15
       8824.5254   2.9595819e-15
       8825.7107   2.9420192e-15
       8826.8961   2.9183036e-15
       8828.0814   2.9199003e-15
       8829.2667   2.8843333e-15
       8830.4521   2.8631820e-15
       8831.6374   2.8669243e-15
       8832.8227   2.8492136e-15
       8834.0081   2.8377627e-15
       8835.1934   2.8260679e-15
       8836.3787   2.8200762e-15
       8837.5641   2.8332635e-15
       8838.7494   2.7871910e-15
       8839.9347   2.7700716e-15
       8841.1201   2.7594242e-15
       8842.3054   2.7897413e-15
       8843.4907   2.7877240e-15
       8844.6761   2.7606085e-15
       8845.8614   2.7634626e-15
       8847.0467   2.7511092e-15
       8848.2321   2.7278077e-15
       8849.4174   2.7188527e-15
       8850.6027   2.7219084e-15
       8851.7881   2.7017623e-15
       8852.9734   2.7159211e-15
       8854.1587   2.7114307e-15
       8855.3441   2.7161323e-15
       8856.5294   2.6785863e-15
       8857.7147   2.6994903e-15
       8858.9001   2.6989610e-15
       8860.0854   2.7062067e-15
       8861.2708   2.6954331e-15
       8862.4561   2.6809074e-15
       8863.6414   2.6865158e-15
       8864.8268   2.6788056e-15
       8866.0121   2.6907057e-15
       8867.1974   2.7103006e-15
       8868.3828   2.6813715e-15
       8869.5681   2.6751269e-15
       8870.7534   2.6931976e-15
       8871.9388   2.7129389e-15
       8873.1241   2.7228402e-15
       8874.3094   2.7186128e-15
       8875.4948   2.7245231e-15
       8876.6801   2.7254598e-15
       8877.8654   2.7002691e-15
       8879.0508   2.7027868e-15
       8880.2361   2.6985437e-15
       8881.4214   2.7060935e-15
       8882.6068   2.7153221e-15
       8883.7921   2.7295821e-15
       8884.9774   2.7103704e-15
       8886.1628   2.7163966e-15
       8887.3481   2.7068964e-15
       8888.5334   2.7227279e-15
       8889.7188   2.7081250e-15
       8890.9041   2.6999730e-15
       8892.0894   2.7102133e-15
       8893.2748   2.6902104e-15
       8894.4601   2.6933627e-15
       8895.6454   2.6918186e-15
       8896.8308   2.6848875e-15
       8898.0161   2.7017952e-15
       8899.2014   2.6906748e-15
       8900.3868   2.7179183e-15
       8901.5721   2.7271383e-15
       8902.7574   2.7185875e-15
       8903.9428   2.6929465e-15
       8905.1281   2.6875042e-15
       8906.3134   2.6775285e-15
       8907.4988   2.6628683e-15
       8908.6841   2.6694412e-15
       8909.8694   2.6743591e-15
       8911.0548   2.6718587e-15
       8912.2401   2.6512676e-15
       8913.4254   2.6686265e-15
       8914.6108   2.6853663e-15
       8915.7961   2.6870380e-15
       8916.9814   2.6638290e-15
       8918.1668   2.6623302e-15
       8919.3521   2.6448761e-15
       8920.5374   2.6605615e-15
       8921.7228   2.6483876e-15
       8922.9081   2.6428218e-15
       8924.0934   2.6493315e-15
       8925.2788   2.6518439e-15
       8926.4641   2.6243689e-15
       8927.6494   2.6110075e-15
       8928.8348   2.6080240e-15
       8930.0201   2.6162657e-15
       8931.2055   2.6068825e-15
       8932.3908   2.6467080e-15
       8933.5761   2.6358155e-15
       8934.7615   2.6257496e-15
       8935.9468   2.6090586e-15
       8937.1321   2.5857602e-15
       8938.3175   2.5669631e-15
       8939.5028   2.6062749e-15
       8940.6881   2.6391503e-15
       8941.8735   2.6358444e-15
       8943.0588   2.6007494e-15
       8944.2441   2.6143928e-15
       8945.4295   2.6170713e-15
       8946.6148   2.5688500e-15
       8947.8001   2.5703195e-15
       8948.9855   2.5666454e-15
       8950.1708   2.5922107e-15
       8951.3561   2.5695641e-15
       8952.5415   2.5525980e-15
       8953.7268   2.5501208e-15
       8954.9121   2.5611098e-15
       8956.0975   2.5519824e-15
       8957.2828   2.5443771e-15
       8958.4681   2.5451449e-15
       8959.6535   2.5973416e-15
       8960.8388   2.6107821e-15
       8962.0241   2.5831236e-15
       8963.2095   2.5670972e-15
       8964.3948   2.5682579e-15
       8965.5801   2.5606445e-15
       8966.7655   2.5365982e-15
       8967.9508   2.5322352e-15
       8969.1361   2.5341480e-15
       8970.3215   2.5325073e-15
       8971.5068   2.5578268e-15
       8972.6921   2.5588106e-15
       8973.8775   2.5373447e-15
       8975.0628   2.5284288e-15
       8976.2481   2.5362457e-15
       8977.4335   2.5527935e-15
       8978.6188   2.5699250e-15
       8979.8041   2.5451302e-15
       8980.9895   2.5104636e-15
       8982.1748   2.5113234e-15
       8983.3601   2.5214110e-15
       8984.5455   2.5495085e-15
       8985.7308   2.5484550e-15
       8986.9161   2.5076673e-15
       8988.1015   2.4843798e-15
       8989.2868   2.4725415e-15
       8990.4721   2.4757711e-15
       8991.6575   2.4734122e-15
       8992.8428   2.4581993e-15
       8994.0281   2.4960177e-15
       8995.2135   2.5213054e-15
       8996.3988   2.5645925e-15
       8997.5842   2.5894100e-15
       8998.7695   2.5719771e-15
       8999.9548   2.5563457e-15
       9001.1402   2.5410795e-15
       9002.3255   2.5333647e-15
       9003.5108   2.5306244e-15
       9004.6962   2.5400199e-15
       9005.8815   2.5633816e-15
       9007.0668   2.5826479e-15
       9008.2522   2.5855686e-15
       9009.4375   2.5830739e-15
       9010.6228   2.6434321e-15
       9011.8082   2.6591789e-15
       9012.9935   2.6093757e-15
       9014.1788   2.6213645e-15
       9015.3642   2.6293008e-15
       9016.5495   2.5629076e-15
       9017.7348   2.5250912e-15
       9018.9202   2.5424601e-15
       9020.1055   2.5703607e-15
       9021.2908   2.5572997e-15
       9022.4762   2.5392974e-15
       9023.6615   2.5244732e-15
       9024.8468   2.5190187e-15
       9026.0322   2.4946313e-15
       9027.2175   2.4966587e-15
       9028.4028   2.5508940e-15
       9029.5882   2.5794414e-15
       9030.7735   2.5452941e-15
       9031.9588   2.5228564e-15
       9033.1442   2.5318123e-15
       9034.3295   2.5484474e-15
       9035.5148   2.5898425e-15
       9036.7002   2.5982310e-15
       9037.8855   2.5656660e-15
       9039.0708   2.5578002e-15
       9040.2562   2.5723800e-15
       9041.4415   2.5962223e-15
       9042.6268   2.5888917e-15
       9043.8122   2.5629275e-15
       9044.9975   2.5868188e-15
       9046.1828   2.6285119e-15
       9047.3682   2.6429451e-15
       9048.5535   2.6188126e-15
       9049.7388   2.5904194e-15
       9050.9242   2.6205452e-15
       9052.1095   2.6228579e-15
       9053.2948   2.6215929e-15
       9054.4802   2.6415452e-15
       9055.6655   2.6327341e-15
       9056.8508   2.6175068e-15
       9058.0362   2.6589898e-15
       9059.2215   2.6648626e-15
       9060.4068   2.6542398e-15
       9061.5922   2.6823936e-15
       9062.7775   2.6721353e-15
       9063.9628   2.6513863e-15
       9065.1482   2.6449296e-15
       9066.3335   2.6593710e-15
       9067.5189   2.7023558e-15
       9068.7042   2.6875704e-15
       9069.8895   2.6675534e-15
       9071.0749   2.6498975e-15
       9072.2602   2.6251178e-15
       9073.4455   2.6594678e-15
       9074.6309   2.6886002e-15
       9075.8162   2.7145657e-15
       9077.0015   2.7237450e-15
       9078.1869   2.7288505e-15
       9079.3722   2.7294176e-15
       9080.5575   2.7062616e-15
       9081.7429   2.7034736e-15
       9082.9282   2.6955222e-15
       9084.1135   2.7090892e-15
       9085.2989   2.7234066e-15
       9086.4842   2.7120571e-15
       9087.6695   2.7035225e-15
       9088.8549   2.7265956e-15
       9090.0402   2.7329768e-15
       9091.2255   2.7689852e-15
       9092.4109   2.7610207e-15
       9093.5962   2.7492711e-15
       9094.7815   2.7571806e-15
       9095.9669   2.7489316e-15
       9097.1522   2.7771579e-15
       9098.3375   2.7837442e-15
       9099.5229   2.7618267e-15
       9100.7082   2.7284612e-15
       9101.8935   2.7127519e-15
       9103.0789   2.7073622e-15
       9104.2642   2.7574052e-15
       9105.4495   2.7746968e-15
       9106.6349   2.7956781e-15
       9107.8202   2.7753522e-15
       9109.0055   2.7557564e-15
       9110.1909   2.7631100e-15
       9111.3762   2.7526322e-15
       9112.5615   2.7847372e-15
       9113.7469   2.7913829e-15
       9114.9322   2.7754309e-15
       9116.1175   2.8339155e-15
       9117.3029   2.8607783e-15
       9118.4882   2.8067199e-15
       9119.6735   2.7814538e-15
       9120.8589   2.7563718e-15
       9122.0442   2.7800289e-15
       9123.2295   2.8034557e-15
       9124.4149   2.8100542e-15
       9125.6002   2.8243995e-15
       9126.7855   2.8713740e-15
       9127.9709   2.8948453e-15
       9129.1562   2.8652869e-15
       9130.3415   2.8096887e-15
       9131.5269   2.7899074e-15
       9132.7122   2.8030697e-15
       9133.8975   2.8564817e-15
       9135.0829   2.8546373e-15
       9136.2682   2.8219150e-15
       9137.4536   2.7824514e-15
       9138.6389   2.7922631e-15
       9139.8242   2.8173975e-15
       9141.0096   2.7976262e-15
       9142.1949   2.8129446e-15
       9143.3802   2.8349648e-15
       9144.5656   2.8418038e-15
       9145.7509   2.8504537e-15
       9146.9362   2.8313234e-15
       9148.1216   2.8285816e-15
       9149.3069   2.8610919e-15
       9150.4922   2.8223789e-15
       9151.6776   2.7816980e-15
       9152.8629   2.8010357e-15
       9154.0482   2.7939396e-15
       9155.2336   2.7872939e-15
       9156.4189   2.7810128e-15
       9157.6042   2.7756419e-15
       9158.7896   2.8129514e-15
       9159.9749   2.8495244e-15
       9161.1602   2.8732835e-15
       9162.3456   2.8524266e-15
       9163.5309   2.8576876e-15
       9164.7162   2.8553224e-15
       9165.9016   2.8462844e-15
       9167.0869   2.8673536e-15
       9168.2722   2.8739289e-15
       9169.4576   2.8752956e-15
       9170.6429   2.8749519e-15
       9171.8282   2.8908720e-15
       9173.0136   2.8995621e-15
       9174.1989   2.8966863e-15
       9175.3842   2.8656090e-15
       9176.5696   2.8265971e-15
       9177.7549   2.8411051e-15
       9178.9402   2.8623815e-15
       9180.1256   2.8994346e-15
       9181.3109   2.9136241e-15
       9182.4962   2.9432613e-15
       9183.6816   2.9576921e-15
       9184.8669   2.8930797e-15
       9186.0522   2.8813053e-15
       9187.2376   2.9284308e-15
       9188.4229   2.9340670e-15
       9189.6082   2.9026716e-15
       9190.7936   2.9228327e-15
       9191.9789   2.9379120e-15
       9193.1642   2.9035592e-15
       9194.3496   2.9380951e-15
       9195.5349   2.9546688e-15
       9196.7202   2.9696022e-15
       9197.9056   2.9562057e-15
       9199.0909   2.9629777e-15
       9200.2762   2.9694630e-15
       9201.4616   2.9911577e-15
       9202.6469   2.9978950e-15
       9203.8322   2.9405055e-15
       9205.0176   2.9574723e-15
       9206.2029   2.9773711e-15
       9207.3883   2.9759321e-15
       9208.5736   2.9632090e-15
       9209.7589   2.9358561e-15
       9210.9443   2.9587347e-15
       9212.1296   2.9613568e-15
       9213.3149   2.9611757e-15
       9214.5003   2.9209547e-15
       9215.6856   2.9326354e-15
       9216.8709   2.9411735e-15
       9218.0563   2.9473176e-15
       9219.2416   2.9802197e-15
       9220.4269   2.9940420e-15
       9221.6123   3.0205370e-15
       9222.7976   3.0712216e-15
       9223.9829   3.0975363e-15
       9225.1683   3.0818181e-15
       9226.3536   3.0567980e-15
       9227.5389   3.1225338e-15
       9228.7243   3.0650099e-15
       9229.9096   3.0168957e-15
       9231.0949   2.9969161e-15
       9232.2803   3.0047749e-15
       9233.4656   2.9516451e-15
       9234.6509   2.9254630e-15
       9235.8363   2.9399474e-15
       9237.0216   2.9540677e-15
       9238.2069   2.9250261e-15
       9239.3923   2.9205573e-15
       9240.5776   2.8968122e-15
       9241.7629   2.9288111e-15
       9242.9483   2.9084475e-15
       9244.1336   2.9158738e-15
       9245.3189   2.9116912e-15
       9246.5043   2.8825208e-15
       9247.6896   2.9110235e-15
       9248.8749   2.9220031e-15
       9250.0603   2.8789044e-15
       9251.2456   2.8530395e-15
       9252.4309   2.8519393e-15
       9253.6163   2.8471489e-15
       9254.8016   2.8720054e-15
       9255.9869   2.8475737e-15
       9257.1723   2.8488978e-15
       9258.3576   2.8349497e-15
       9259.5429   2.8506058e-15
       9260.7283   2.8582700e-15
       9261.9136   2.8343745e-15
       9263.0989   2.8304643e-15
       9264.2843   2.8478703e-15
       9265.4696   2.8658632e-15
       9266.6549   2.8739330e-15
       9267.8403   2.8692919e-15
       9269.0256   2.8696018e-15
       9270.2109   2.8748713e-15
       9271.3963   2.8628860e-15
       9272.5816   2.8183888e-15
       9273.7670   2.7884134e-15
       9274.9523   2.8216056e-15
       9276.1376   2.8856422e-15
       9277.3230   2.8731169e-15
       9278.5083   2.8060831e-15
       9279.6936   2.7994225e-15
       9280.8790   2.8284061e-15
       9282.0643   2.8058169e-15
       9283.2496   2.7874493e-15
       9284.4350   2.8263066e-15
       9285.6203   2.8324971e-15
       9286.8056   2.8260466e-15
       9287.9910   2.8150522e-15
       9289.1763   2.8069197e-15
       9290.3616   2.8247700e-15
       9291.5470   2.8533953e-15
       9292.7323   2.8532753e-15
       9293.9176   2.8259362e-15
       9295.1030   2.8108285e-15
       9296.2883   2.7839762e-15
       9297.4736   2.7682504e-15
       9298.6590   2.7693779e-15
       9299.8443   2.7810739e-15
       9301.0296   2.7547164e-15
       9302.2150   2.7673655e-15
       9303.4003   2.7571802e-15
       9304.5856   2.7636924e-15
       9305.7710   2.7843076e-15
       9306.9563   2.7978081e-15
       9308.1416   2.7856002e-15
       9309.3270   2.6920403e-15
       9310.5123   2.6163895e-15
       9311.6976   2.6330782e-15
       9312.8830   2.7602550e-15
       9314.0683   2.8541300e-15
       9315.2536   2.8448637e-15
       9316.4390   2.6723416e-15
       9317.6243   2.5727489e-15
       9318.8096   2.5351778e-15
       9319.9950   2.6077470e-15
       9321.1803   2.7048810e-15
       9322.3656   2.7928893e-15
       9323.5510   2.8132743e-15
       9324.7363   2.6965523e-15
       9325.9216   2.5637274e-15
       9327.1070   2.5270927e-15
       9328.2923   2.6068188e-15
       9329.4776   2.6471212e-15
       9330.6630   2.6678745e-15
       9331.8483   2.7163339e-15
       9333.0336   2.7236378e-15
       9334.2190   2.6104414e-15
       9335.4043   2.5317585e-15
       9336.5896   2.5564693e-15
       9337.7750   2.6215712e-15
       9338.9603   2.6178042e-15
       9340.1456   2.6697441e-15
       9341.3310   2.7349336e-15
       9342.5163   2.7645338e-15
       9343.7017   2.5956127e-15
       9344.8870   2.3560309e-15
       9346.0723   2.2336106e-15
       9347.2577   2.3281449e-15
       9348.4430   2.4332242e-15
       9349.6283   2.5026504e-15
       9350.8137   2.6578788e-15
       9351.9990   2.7373262e-15
       9353.1843   2.6456754e-15
       9354.3697   2.4861068e-15
       9355.5550   2.4630500e-15
       9356.7403   2.4966842e-15
       9357.9257   2.4184251e-15
       9359.1110   2.3225729e-15
       9360.2963   2.3025960e-15
       9361.4817   2.3857365e-15
       9362.6670   2.5326298e-15
       9363.8523   2.5963466e-15
       9365.0377   2.5543539e-15
       9366.2230   2.4573973e-15
       9367.4083   2.4370544e-15
       9368.5937   2.4892189e-15
       9369.7790   2.4789657e-15
       9370.9643   2.4240097e-15
       9372.1497   2.3209933e-15
       9373.3350   2.4324623e-15
       9374.5203   2.4017047e-15
       9375.7057   2.5097446e-15
       9376.8910   2.5023177e-15
       9378.0763   2.4638361e-15
       9379.2617   2.4517115e-15
       9380.4470   2.3839196e-15
       9381.6323   2.3493241e-15
       9382.8177   2.3289531e-15
       9384.0030   2.3629885e-15
       9385.1883   2.4590937e-15
       9386.3737   2.4417291e-15
       9387.5590   2.3353905e-15
       9388.7443   2.2979423e-15
       9389.9297   2.3724386e-15
       9391.1150   2.4122547e-15
       9392.3003   2.3820925e-15
       9393.4857   2.3966427e-15
       9394.6710   2.4291871e-15
       9395.8563   2.4291068e-15
       9397.0417   2.4520798e-15
       9398.2270   2.4612197e-15
       9399.4123   2.4321915e-15
       9400.5977   2.4200791e-15
       9401.7830   2.4172551e-15
       9402.9683   2.4122851e-15
       9404.1537   2.4114317e-15
       9405.3390   2.4334815e-15
       9406.5243   2.4643286e-15
       9407.7097   2.4919620e-15
       9408.8950   2.4952533e-15
       9410.0803   2.4379173e-15
       9411.2657   2.3623224e-15
       9412.4510   2.3520177e-15
       9413.6364   2.4082598e-15
       9414.8217   2.4738512e-15
       9416.0070   2.4965953e-15
       9417.1924   2.4446065e-15
       9418.3777   2.3809862e-15
       9419.5630   2.4070796e-15
       9420.7484   2.4327889e-15
       9421.9337   2.4302561e-15
       9423.1190   2.4551985e-15
       9424.3044   2.5538380e-15
       9425.4897   2.6273431e-15
       9426.6750   2.5579140e-15
       9427.8604   2.4190126e-15
       9429.0457   2.3161960e-15
       9430.2310   2.2827640e-15
       9431.4164   2.2960576e-15
       9432.6017   2.3707887e-15
       9433.7870   2.4697788e-15
       9434.9724   2.5565066e-15
       9436.1577   2.5730788e-15
       9437.3430   2.5735099e-15
       9438.5284   2.6005722e-15
       9439.7137   2.5847847e-15
       9440.8990   2.4690625e-15
       9442.0844   2.3389489e-15
       9443.2697   2.3314679e-15
       9444.4550   2.3701769e-15
       9445.6404   2.4176355e-15
       9446.8257   2.4578795e-15
       9448.0110   2.5458212e-15
       9449.1964   2.6173497e-15
       9450.3817   2.5427705e-15
       9451.5670   2.5627494e-15
       9452.7524   2.6462691e-15
       9453.9377   2.6451238e-15
       9455.1230   2.5679186e-15
       9456.3084   2.5126657e-15
       9457.4937   2.5730918e-15
       9458.6790   2.6644243e-15
       9459.8644   2.6022408e-15
       9461.0497   2.4804274e-15
       9462.2350   2.4240499e-15
       9463.4204   2.4805176e-15
       9464.6057   2.5495822e-15
       9465.7910   2.6421988e-15
       9466.9764   2.6681063e-15
       9468.1617   2.6600450e-15
       9469.3470   2.6016467e-15
       9470.5324   2.5640509e-15
       9471.7177   2.6279805e-15
       9472.9030   2.6955652e-15
       9474.0884   2.6837478e-15
       9475.2737   2.6354752e-15
       9476.4590   2.5978492e-15
       9477.6444   2.6797032e-15
       9478.8297   2.8419724e-15
       9480.0150   2.8476056e-15
       9481.2004   2.6841988e-15
       9482.3857   2.5428276e-15
       9483.5711   2.5373123e-15
       9484.7564   2.6227160e-15
       9485.9417   2.7386102e-15
       9487.1271   2.7771245e-15
       9488.3124   2.7406090e-15
       9489.4977   2.7744534e-15
       9490.6831   2.8916006e-15
       9491.8684   2.9201674e-15
       9493.0537   2.8328288e-15
       9494.2391   2.7698842e-15
       9495.4244   2.7187755e-15
       9496.6097   2.7012577e-15
       9497.7951   2.7454889e-15
       9498.9804   2.8126972e-15
       9500.1657   2.8003821e-15
       9501.3511   2.6555726e-15
       9502.5364   2.5649123e-15
       9503.7217   2.6171596e-15
       9504.9071   2.7070939e-15
       9506.0924   2.7777037e-15
       9507.2777   2.8191802e-15
       9508.4631   2.8073312e-15
       9509.6484   2.8278134e-15
       9510.8337   2.8664461e-15
       9512.0191   2.8482561e-15
       9513.2044   2.8732226e-15
       9514.3897   2.9297389e-15
       9515.5751   2.9370587e-15
       9516.7604   2.8501054e-15
       9517.9457   2.7281121e-15
       9519.1311   2.7424109e-15
       9520.3164   2.7999477e-15
       9521.5017   2.7696747e-15
       9522.6871   2.7383821e-15
       9523.8724   2.7209378e-15
       9525.0577   2.7349963e-15
       9526.2431   2.7835634e-15
       9527.4284   2.8081662e-15
       9528.6137   2.8124185e-15
       9529.7991   2.7964797e-15
       9530.9844   2.8111449e-15
       9532.1697   2.8609266e-15
       9533.3551   2.9128581e-15
       9534.5404   2.9200028e-15
       9535.7257   2.8844982e-15
       9536.9111   2.8979369e-15
       9538.0964   2.9618931e-15
       9539.2817   3.0346301e-15
       9540.4671   3.0837763e-15
       9541.6524   3.1073552e-15
       9542.8377   3.1344707e-15
       9544.0231   3.0547312e-15
       9545.2084   2.8954776e-15
       9546.3937   2.8068273e-15
       9547.5791   2.8262909e-15
       9548.7644   2.8868712e-15
       9549.9498   2.9232624e-15
       9551.1351   2.9428708e-15
       9552.3204   2.9403859e-15
       9553.5058   2.8699326e-15
       9554.6911   2.7802423e-15
       9555.8764   2.7816635e-15
       9557.0618   2.7848278e-15
       9558.2471   2.7643685e-15
       9559.4324   2.7761541e-15
       9560.6178   2.7887159e-15
       9561.8031   2.8804832e-15
       9562.9884   2.9133098e-15
       9564.1738   2.8898123e-15
       9565.3591   2.8550402e-15
       9566.5444   2.8190999e-15
       9567.7298   2.7649133e-15
       9568.9151   2.7598469e-15
       9570.1004   2.7381555e-15
       9571.2858   2.7955079e-15
       9572.4711   2.8474354e-15
       9573.6564   2.8706776e-15
       9574.8418   2.8679293e-15
       9576.0271   2.9064075e-15
       9577.2124   2.9404827e-15
       9578.3978   2.8984952e-15
       9579.5831   2.8610651e-15
       9580.7684   2.8476696e-15
       9581.9538   2.7998436e-15
       9583.1391   2.7899218e-15
       9584.3244   2.8001231e-15
       9585.5098   2.8687943e-15
       9586.6951   2.8359861e-15
       9587.8804   2.8168084e-15
       9589.0658   2.8363297e-15
       9590.2511   2.8310210e-15
       9591.4364   2.8168084e-15
       9592.6218   2.7849038e-15
       9593.8071   2.7758229e-15
       9594.9924   2.8274912e-15
       9596.1778   2.8478380e-15
       9597.3631   2.8713814e-15
       9598.5484   2.8839301e-15
       9599.7338   2.8832802e-15
       9600.9191   2.9195443e-15
       9602.1044   2.8968110e-15
       9603.2898   2.9197530e-15
       9604.4751   2.8913397e-15
       9605.6604   2.8771958e-15
       9606.8458   2.8411950e-15
       9608.0311   2.8413080e-15
       9609.2164   2.8937611e-15
       9610.4018   2.9043324e-15
       9611.5871   2.9468211e-15
       9612.7724   2.9606081e-15
       9613.9578   2.9255482e-15
       9615.1431   2.9105353e-15
       9616.3284   2.9278124e-15
       9617.5138   2.9216695e-15
       9618.6991   2.9365281e-15
       9619.8845   2.9300140e-15
       9621.0698   2.9188026e-15
       9622.2551   2.9144947e-15
       9623.4405   2.8689077e-15
       9624.6258   2.8566120e-15
       9625.8111   2.8829012e-15
       9626.9965   2.8954760e-15
       9628.1818   2.8678425e-15
       9629.3671   2.8866503e-15
       9630.5525   2.9025744e-15
       9631.7378   2.9037213e-15
       9632.9231   2.9532109e-15
       9634.1085   2.9973738e-15
       9635.2938   2.9878087e-15
       9636.4791   2.9638770e-15
       9637.6645   2.9046727e-15
       9638.8498   2.8624607e-15
       9640.0351   2.8495114e-15
       9641.2205   2.8445561e-15
       9642.4058   2.8770526e-15
       9643.5911   2.8978838e-15
       9644.7765   2.8784888e-15
       9645.9618   2.8551783e-15
       9647.1471   2.8284419e-15
       9648.3325   2.8241357e-15
       9649.5178   2.8766456e-15
       9650.7031   2.9078697e-15
       9651.8885   2.8980269e-15
       9653.0738   2.8874863e-15
       9654.2591   2.9066674e-15
       9655.4445   2.9306575e-15
       9656.6298   2.9546876e-15
       9657.8151   2.9673336e-15
       9659.0005   2.9413749e-15
       9660.1858   2.9070379e-15
       9661.3711   2.8857988e-15
       9662.5565   2.8567275e-15
       9663.7418   2.8305778e-15
       9664.9271   2.8133432e-15
       9666.1125   2.8311822e-15
       9667.2978   2.8712407e-15
       9668.4831   2.8881585e-15
       9669.6685   2.9038646e-15
       9670.8538   2.8868831e-15
       9672.0391   2.8601650e-15
       9673.2245   2.8693474e-15
       9674.4098   2.8709781e-15
       9675.5951   2.8838615e-15
       9676.7805   2.9521559e-15
       9677.9658   2.8990177e-15
       9679.1511   2.9463325e-15
       9680.3365   2.9123591e-15
       9681.5218   2.8965389e-15
       9682.7071   2.8880214e-15
       9683.8925   2.8895187e-15
       9685.0778   2.9543120e-15
       9686.2631   2.9946929e-15
       9687.4485   2.9859123e-15
       9688.6338   2.9763083e-15
       9689.8192   2.9705046e-15
       9691.0045   2.9711712e-15
       9692.1898   2.9941819e-15
       9693.3752   2.9460748e-15
       9694.5605   2.9543641e-15
       9695.7458   3.0007218e-15
       9696.9312   3.0142980e-15
       9698.1165   2.9997933e-15
       9699.3018   2.9590448e-15
       9700.4872   2.9182124e-15
       9701.6725   2.9280545e-15
       9702.8578   2.9799997e-15
       9704.0432   2.9771884e-15
       9705.2285   2.9503810e-15
       9706.4138   3.0100741e-15
       9707.5992   3.0368607e-15
       9708.7845   2.9804362e-15
       9709.9698   2.9708496e-15
       9711.1552   2.9719243e-15
       9712.3405   2.9484916e-15
       9713.5258   2.9514062e-15
       9714.7112   2.9564827e-15
       9715.8965   2.9436690e-15
       9717.0818   2.9520810e-15
       9718.2672   2.9566425e-15
       9719.4525   2.9541659e-15
       9720.6378   2.9713782e-15
       9721.8232   2.9776593e-15
       9723.0085   2.9913033e-15
       9724.1938   2.9853310e-15
       9725.3792   2.9926065e-15
       9726.5645   3.0188116e-15
       9727.7498   3.0218086e-15
       9728.9352   2.9687759e-15
       9730.1205   2.9870581e-15
       9731.3058   2.9600218e-15
       9732.4912   2.9735497e-15
       9733.6765   3.0257816e-15
       9734.8618   3.0541216e-15
       9736.0472   2.9900403e-15
       9737.2325   2.9466716e-15
       9738.4178   2.9141973e-15
       9739.6032   2.9008478e-15
       9740.7885   2.9500655e-15
       9741.9738   3.0044935e-15
       9743.1592   2.9730613e-15
       9744.3445   2.9981773e-15
       9745.5298   2.9952031e-15
       9746.7152   2.9426293e-15
       9747.9005   2.9478714e-15
       9749.0858   3.0099227e-15
       9750.2712   2.9808840e-15
       9751.4565   2.9312777e-15
       9752.6418   2.9643720e-15
       9753.8272   2.9508976e-15
       9755.0125   2.9479937e-15
       9756.1978   2.9303442e-15
       9757.3832   2.8863300e-15
       9758.5685   2.8962746e-15
       9759.7539   2.9482429e-15
       9760.9392   2.9332510e-15
       9762.1245   2.9219866e-15
       9763.3099   2.9230686e-15
       9764.4952   2.9164934e-15
       9765.6805   2.9297249e-15
       9766.8659   2.8878370e-15
       9768.0512   2.9041962e-15
       9769.2365   2.8821196e-15
       9770.4219   2.8837940e-15
       9771.6072   2.9026186e-15
       9772.7925   2.9072172e-15
       9773.9779   2.8956346e-15
       9775.1632   2.8946509e-15
       9776.3485   2.8822645e-15
       9777.5339   2.8921998e-15
       9778.7192   2.8843722e-15
       9779.9045   2.8744172e-15
       9781.0899   2.8618921e-15
       9782.2752   2.8305567e-15
       9783.4605   2.8379049e-15
       9784.6459   2.8424050e-15
       9785.8312   2.8274282e-15
       9787.0165   2.8033686e-15
       9788.2019   2.8378880e-15
       9789.3872   2.8654632e-15
       9790.5725   2.8823216e-15
       9791.7579   2.8537755e-15
       9792.9432   2.8691454e-15
       9794.1285   2.8396676e-15
       9795.3139   2.8459197e-15
       9796.4992   2.8585539e-15
       9797.6845   2.8508643e-15
       9798.8699   2.8766631e-15
       9800.0552   2.8775794e-15
       9801.2405   2.8586251e-15
       9802.4259   2.8399604e-15
       9803.6112   2.8585507e-15
       9804.7965   2.8875607e-15
       9805.9819   2.8038963e-15
       9807.1672   2.7871825e-15
       9808.3525   2.8171380e-15
       9809.5379   2.8046202e-15
       9810.7232   2.8088731e-15
       9811.9085   2.8164213e-15
       9813.0939   2.8280397e-15
       9814.2792   2.8180926e-15
       9815.4645   2.7752010e-15
       9816.6499   2.8144403e-15
       9817.8352   2.8598286e-15
       9819.0205   2.8428648e-15
       9820.2059   2.8677544e-15
       9821.3912   2.8512437e-15
       9822.5765   2.8463125e-15
       9823.7619   2.7906032e-15
       9824.9472   2.7795902e-15
       9826.1326   2.7912688e-15
       9827.3179   2.7603477e-15
       9828.5032   2.7451235e-15
       9829.6886   2.7532074e-15
       9830.8739   2.7790260e-15
       9832.0592   2.7691489e-15
       9833.2446   2.7462029e-15
       9834.4299   2.7651738e-15
       9835.6152   2.7288421e-15
       9836.8006   2.7360696e-15
       9837.9859   2.7476403e-15
       9839.1712   2.7675551e-15
       9840.3566   2.7902525e-15
       9841.5419   2.7209070e-15
       9842.7272   2.7133082e-15
       9843.9126   2.7102354e-15
       9845.0979   2.6910611e-15
       9846.2832   2.7167919e-15
       9847.4686   2.7122766e-15
       9848.6539   2.6539290e-15
       9849.8392   2.6460178e-15
       9851.0246   2.6599129e-15
       9852.2099   2.6402465e-15
       9853.3952   2.6171556e-15
       9854.5806   2.6318100e-15
       9855.7659   2.5860503e-15
       9856.9512   2.5668781e-15
       9858.1366   2.6271043e-15
       9859.3219   2.6329661e-15
       9860.5072   2.5999947e-15
       9861.6926   2.5894215e-15
       9862.8779   2.5727154e-15
       9864.0632   2.5608931e-15
       9865.2486   2.5807252e-15
       9866.4339   2.5476123e-15
       9867.6192   2.4946805e-15
       9868.8046   2.4961457e-15
       9869.9899   2.4847461e-15
       9871.1752   2.4667674e-15
       9872.3606   2.4516951e-15
       9873.5459   2.4167124e-15
       9874.7312   2.4059291e-15
       9875.9166   2.4001738e-15
       9877.1019   2.3982694e-15
       9878.2872   2.3824959e-15
       9879.4726   2.3633116e-15
       9880.6579   2.3488254e-15
       9881.8432   2.3536539e-15
       9883.0286   2.3660728e-15
       9884.2139   2.3358276e-15
       9885.3992   2.3339532e-15
       9886.5846   2.3464532e-15
       9887.7699   2.3097118e-15
       9888.9552   2.2646423e-15
       9890.1406   2.2667507e-15
       9891.3259   2.2570293e-15
       9892.5112   2.2391962e-15
       9893.6966   2.2395364e-15
       9894.8819   2.2532430e-15
       9896.0673   2.2693977e-15
       9897.2526   2.2202932e-15
       9898.4379   2.1796427e-15
       9899.6233   2.1862314e-15
       9900.8086   2.1681180e-15
       9901.9939   2.1660562e-15
       9903.1793   2.1687462e-15
       9904.3646   2.1609913e-15
       9905.5499   2.1269127e-15
       9906.7353   2.1162591e-15
       9907.9206   2.0916996e-15
       9909.1059   2.0658487e-15
       9910.2913   2.0605351e-15
       9911.4766   2.0710335e-15
       9912.6619   2.0588548e-15
       9913.8473   2.0126374e-15
       9915.0326   2.0045358e-15
       9916.2179   2.0033385e-15
       9917.4033   2.0041027e-15
       9918.5886   2.0113455e-15
       9919.7739   1.9940966e-15
       9920.9593   1.9850728e-15
       9922.1446   1.9641757e-15
       9923.3299   1.9512527e-15
       9924.5153   1.9306600e-15
       9925.7006   1.9179078e-15
       9926.8859   1.9454077e-15
       9928.0713   1.9387587e-15
       9929.2566   1.9067098e-15
       9930.4419   1.8849402e-15
       9931.6273   1.8822483e-15
       9932.8126   1.8898539e-15
       9933.9979   1.8815984e-15
       9935.1833   1.8813557e-15
       9936.3686   1.8509749e-15
       9937.5539   1.8338533e-15
       9938.7393   1.8020923e-15
       9939.9246   1.8037273e-15
       9941.1099   1.8310110e-15
       9942.2953   1.8253046e-15
       9943.4806   1.8384365e-15
       9944.6659   1.8381660e-15
       9945.8513   1.8486253e-15
       9947.0366   1.8391159e-15
       9948.2219   1.8054677e-15
       9949.4073   1.8172310e-15
       9950.5926   1.7679564e-15
       9951.7779   1.7432094e-15
       9952.9633   1.7635292e-15
       9954.1486   1.7585257e-15
       9955.3339   1.7481736e-15
       9956.5193   1.7161225e-15
       9957.7046   1.7028235e-15
       9958.8899   1.7381649e-15
       9960.0753   1.7227683e-15
       9961.2606   1.6873667e-15
       9962.4459   1.6821674e-15
       9963.6313   1.6716918e-15
       9964.8166   1.6791433e-15
       9966.0020   1.6971994e-15
       9967.1873   1.6686553e-15
       9968.3726   1.6512397e-15
       9969.5580   1.6356258e-15
       9970.7433   1.6350438e-15
       9971.9286   1.6329649e-15
       9973.1140   1.6156787e-15
       9974.2993   1.6382826e-15
       9975.4846   1.6170328e-15
       9976.6700   1.6221761e-15
       9977.8553   1.6060265e-15
       9979.0406   1.5919152e-15
       9980.2260   1.5908466e-15
       9981.4113   1.5803508e-15
       9982.5966   1.5596222e-15
       9983.7820   1.5666891e-15
       9984.9673   1.5770946e-15
       9986.1526   1.5733296e-15
       9987.3380   1.5570884e-15
       9988.5233   1.5312231e-15
       9989.7086   1.5225211e-15
       9990.8940   1.5251750e-15
       9992.0793   1.5153556e-15
       9993.2646   1.5212214e-15
       9994.4500   1.5205880e-15
       9995.6353   1.5084181e-15
       9996.8206   1.5028474e-15
       9998.0060   1.5025183e-15
       9999.1913   1.5029506e-15
       10000.377   1.4772359e-15
       10001.562   1.4736250e-15
       10002.747   1.4807204e-15
       10003.933   1.4892868e-15
       10005.118   1.4750038e-15
       10006.303   1.4589311e-15
       10007.489   1.4335467e-15
       10008.674   1.4113503e-15
       10009.859   1.4333109e-15
       10011.045   1.4019168e-15
       10012.230   1.3999511e-15
       10013.415   1.3893121e-15
       10014.601   1.4184232e-15
       10015.786   1.4095628e-15
       10016.971   1.4114041e-15
       10018.157   1.4015391e-15
       10019.342   1.3973137e-15
       10020.527   1.4064225e-15
       10021.713   1.4036642e-15
       10022.898   1.3824725e-15
       10024.083   1.3889911e-15
       10025.269   1.3529051e-15
       10026.454   1.3536935e-15
       10027.639   1.3629729e-15
       10028.825   1.3622433e-15
       10030.010   1.3337268e-15
       10031.195   1.3372414e-15
       10032.381   1.3390731e-15
       10033.566   1.3292895e-15
       10034.751   1.3296318e-15
       10035.937   1.3069729e-15
       10037.122   1.3200504e-15
       10038.307   1.3125849e-15
       10039.493   1.3050509e-15
       10040.678   1.2965679e-15
       10041.863   1.3115763e-15
       10043.049   1.2915616e-15
       10044.234   1.3165956e-15
       10045.419   1.3019659e-15
       10046.605   1.2922436e-15
       10047.790   1.2687814e-15
       10048.975   1.2471279e-15
       10050.161   1.2379412e-15
       10051.346   1.2255196e-15
       10052.531   1.2167135e-15
       10053.717   1.1805294e-15
       10054.902   1.2036211e-15
       10056.087   1.2148555e-15
       10057.273   1.1825586e-15
       10058.458   1.2332207e-15
       10059.643   1.2024673e-15
       10060.829   1.2008911e-15
       10062.014   1.1664588e-15
       10063.199   1.1791087e-15
       10064.385   1.1771027e-15
       10065.570   1.1874204e-15
       10066.755   1.1989525e-15
       10067.941   1.1907786e-15
       10069.126   1.1777142e-15
       10070.311   1.1503650e-15
       10071.497   1.1518550e-15
       10072.682   1.1621847e-15
       10073.867   1.1691680e-15
       10075.053   1.1603225e-15
       10076.238   1.1550032e-15
       10077.423   1.1374214e-15
       10078.609   1.1329330e-15
       10079.794   1.1695893e-15
       10080.979   1.1507915e-15
       10082.165   1.1555288e-15
       10083.350   1.1527401e-15
       10084.535   1.1028579e-15
       10085.721   1.1168189e-15
       10086.906   1.1132714e-15
       10088.091   1.0952929e-15
       10089.277   1.0993903e-15
       10090.462   1.1020850e-15
       10091.647   1.1052994e-15
       10092.833   1.0769635e-15
       10094.018   1.0626126e-15
       10095.203   1.0772934e-15
       10096.389   1.0468622e-15
       10097.574   1.0405458e-15
       10098.759   1.0561013e-15
       10099.945   1.0350225e-15
       10101.130   1.0529674e-15
       10102.315   1.0566888e-15
       10103.501   1.0524404e-15
       10104.686   1.0388388e-15
       10105.871   1.0409414e-15
       10107.057   1.0510172e-15
       10108.242   1.0410344e-15
       10109.427   1.0228423e-15
       10110.613   1.0447471e-15
       10111.798   1.0315907e-15
       10112.983   1.0465600e-15
       10114.169   1.0429136e-15
       10115.354   1.0243038e-15
       10116.539   9.8934035e-16
       10117.725   1.0274140e-15
       10118.910   1.0194713e-15
       10120.095   1.0120770e-15
       10121.281   9.9320043e-16
       10122.466   1.0126734e-15
       10123.651   1.0453723e-15
       10124.837   1.0274161e-15
       10126.022   9.9755236e-16
       10127.207   1.0047381e-15
       10128.393   9.8586982e-16
       10129.578   9.8307211e-16
       10130.763   9.4456141e-16
       10131.949   9.7384030e-16
       10133.134   9.6655938e-16
       10134.319   9.6676436e-16
       10135.505   9.7983516e-16
       10136.690   9.9482036e-16
       10137.875   9.7197473e-16
       10139.061   9.4157093e-16
       10140.246   9.8167603e-16
       10141.431   9.5533234e-16
       10142.617   9.5894086e-16
       10143.802   9.3507039e-16
       10144.987   9.2772410e-16
       10146.173   9.3934918e-16
       10147.358   9.5104304e-16
