# wavelength(A)     flux(erg / s cm2 A)
       5950.0000   6.1058194e-15
       5951.3000   6.0109586e-15
       5952.6000   5.9363390e-15
       5953.9000   5.8354580e-15
       5955.2000   6.1224619e-15
       5956.5000   6.4776162e-15
       5957.8000   6.2552830e-15
       5959.1000   6.0805231e-15
       5960.4000   6.0646492e-15
       5961.7000   6.1337452e-15
       5963.0000   5.9333964e-15
       5964.3000   5.8086985e-15
       5965.6000   5.8616702e-15
       5966.9000   5.6115226e-15
       5968.2000   5.7729663e-15
       5969.5000   5.8535783e-15
       5970.8000   5.7604469e-15
       5972.1000   5.9283209e-15
       5973.4000   5.8813297e-15
       5974.7000   5.7680710e-15
       5976.0000   5.9776007e-15
       5977.3000   5.8872161e-15
       5978.6000   5.7518711e-15
       5979.9000   5.6796507e-15
       5981.2000   5.9850527e-15
       5982.5000   5.8710135e-15
       5983.8000   5.8076020e-15
       5985.1000   6.0263734e-15
       5986.4000   5.9255800e-15
       5987.7000   5.7023867e-15
       5989.0000   6.0669323e-15
       5990.3000   5.7951930e-15
       5991.6000   5.7776787e-15
       5992.9000   5.8755432e-15
       5994.2000   5.9261862e-15
       5995.5000   5.8284384e-15
       5996.8000   5.8536208e-15
       5998.1000   5.8480514e-15
       5999.4000   5.6629561e-15
       6000.7000   5.5399018e-15
       6002.0000   5.6282421e-15
       6003.3000   5.7059870e-15
       6004.6000   5.5899560e-15
       6005.9000   5.5484801e-15
       6007.2000   5.6457519e-15
       6008.5000   5.6411249e-15
       6009.8000   5.7572535e-15
       6011.1000   5.9736559e-15
       6012.4000   5.8463022e-15
       6013.7000   5.5869734e-15
       6015.0000   5.4545621e-15
       6016.3000   5.6377177e-15
       6017.6000   5.8121938e-15
       6018.9000   5.8239377e-15
       6020.2000   5.7319961e-15
       6021.5000   5.5103221e-15
       6022.8000   5.5513032e-15
       6024.1000   5.7321781e-15
       6025.4000   5.6608395e-15
       6026.7000   5.5027675e-15
       6028.0000   5.7900285e-15
       6029.3000   5.7065700e-15
       6030.6000   5.3721179e-15
       6031.9000   5.4146601e-15
       6033.2000   5.5300721e-15
       6034.5000   5.4107087e-15
       6035.8000   5.4537618e-15
       6037.1000   5.3512655e-15
       6038.4000   5.3099910e-15
       6039.7000   5.7482462e-15
       6041.0000   5.4504344e-15
       6042.3000   5.2549898e-15
       6043.6000   5.3033131e-15
       6044.9000   5.4580718e-15
       6046.2000   5.3385438e-15
       6047.5000   5.2942012e-15
       6048.8000   5.4355399e-15
       6050.1000   5.6792528e-15
       6051.4000   5.6629218e-15
       6052.7000   5.3224522e-15
       6054.0000   5.2657099e-15
       6055.3000   5.3751391e-15
       6056.6000   5.2459387e-15
       6057.9000   5.3708631e-15
       6059.2000   5.4531590e-15
       6060.5000   5.4453960e-15
       6061.8000   5.4012186e-15
       6063.1000   5.2022056e-15
       6064.4000   5.1172899e-15
       6065.7000   5.3878387e-15
       6067.0000   5.3965895e-15
       6068.3000   5.3079788e-15
       6069.6000   5.2603958e-15
       6070.9000   5.3075981e-15
       6072.2000   5.4188274e-15
       6073.5000   5.5467973e-15
       6074.8000   5.3821742e-15
       6076.1000   5.2668005e-15
       6077.4000   5.3544556e-15
       6078.7000   5.4196867e-15
       6080.0000   5.4768587e-15
       6081.3000   5.5755267e-15
       6082.6000   5.4988166e-15
       6083.9000   5.4921544e-15
       6085.2000   5.5274240e-15
       6086.5000   5.5766502e-15
       6087.8000   5.6132998e-15
       6089.1000   5.6733831e-15
       6090.4000   5.6426217e-15
       6091.7000   5.2941624e-15
       6093.0000   5.2650887e-15
       6094.3000   5.5320228e-15
       6095.6000   5.6499471e-15
       6096.9000   5.5556551e-15
       6098.2000   5.5697286e-15
       6099.5000   5.6934893e-15
       6100.8000   5.6743508e-15
       6102.1000   5.6485237e-15
       6103.4000   5.8158717e-15
       6104.7000   5.7590623e-15
       6106.0000   5.3797985e-15
       6107.3000   5.4174671e-15
       6108.6000   5.7463131e-15
       6109.9000   5.9177141e-15
       6111.2000   5.7784087e-15
       6112.5000   5.7878094e-15
       6113.8000   5.7801882e-15
       6115.1000   5.8165063e-15
       6116.4000   5.9549715e-15
       6117.7000   6.1138182e-15
       6119.0000   6.0711890e-15
       6120.3000   5.8737897e-15
       6121.6000   5.9057911e-15
       6122.9000   6.1746468e-15
       6124.2000   6.3057301e-15
       6125.5000   6.3136968e-15
       6126.8000   6.1487234e-15
       6128.1000   6.0669421e-15
       6129.4000   6.1019082e-15
       6130.7000   6.0569273e-15
       6132.0000   6.2162394e-15
       6133.3000   6.2199604e-15
       6134.6000   6.1679997e-15
       6135.9000   6.1448833e-15
       6137.2000   6.2176817e-15
       6138.5000   6.3015244e-15
       6139.8000   6.3484615e-15
       6141.1000   6.2734505e-15
       6142.4000   6.0431870e-15
       6143.7000   6.1536313e-15
       6145.0000   6.4275334e-15
       6146.3000   6.5627625e-15
       6147.6000   6.4887619e-15
       6148.9000   6.6879193e-15
       6150.2000   6.7831087e-15
       6151.5000   6.5524990e-15
       6152.8000   6.5665042e-15
       6154.1000   6.5792956e-15
       6155.4000   6.5677861e-15
       6156.7000   6.3758111e-15
       6158.0000   6.5200469e-15
       6159.3000   6.7884086e-15
       6160.6000   6.9125874e-15
       6161.9000   6.6540138e-15
       6163.2000   6.5803819e-15
       6164.5000   6.6587486e-15
       6165.8000   6.8258826e-15
       6167.1000   6.8660451e-15
       6168.4000   6.7330847e-15
       6169.7000   6.7640303e-15
       6171.0000   6.8159587e-15
       6172.3000   6.8012885e-15
       6173.6000   6.8080804e-15
       6174.9000   6.6846956e-15
       6176.2000   6.7452669e-15
       6177.5000   6.8247327e-15
       6178.8000   6.8193244e-15
       6180.1000   6.8729964e-15
       6181.4000   6.6830995e-15
       6182.7000   6.4303566e-15
       6184.0000   6.5297504e-15
       6185.3000   6.6380799e-15
       6186.6000   6.8930385e-15
       6187.9000   6.7387051e-15
       6189.2000   6.6294800e-15
       6190.5000   6.5767638e-15
       6191.8000   6.7079996e-15
       6193.1000   6.5067521e-15
       6194.4000   6.7019719e-15
       6195.7000   6.7606201e-15
       6197.0000   6.9209677e-15
       6198.3000   6.8574981e-15
       6199.6000   6.9226022e-15
       6200.9000   6.8068743e-15
       6202.2000   6.6136745e-15
       6203.5000   6.7109599e-15
       6204.8000   6.6005439e-15
       6206.1000   6.6891787e-15
       6207.4000   6.6758520e-15
       6208.7000   6.6797117e-15
       6210.0000   6.9327286e-15
       6211.3000   6.4378588e-15
       6212.6000   6.5823766e-15
       6213.9000   6.7617928e-15
       6215.2000   6.6571819e-15
       6216.5000   6.3881985e-15
       6217.8000   6.4254381e-15
       6219.1000   6.6108117e-15
       6220.4000   6.6370267e-15
       6221.7000   6.4062236e-15
       6223.0000   6.4197667e-15
       6224.3000   6.3480668e-15
       6225.6000   6.5464053e-15
       6226.9000   6.7053345e-15
       6228.2000   6.5265404e-15
       6229.5000   6.3818422e-15
       6230.8000   6.4093120e-15
       6232.1000   6.5197824e-15
       6233.4000   6.5498247e-15
       6234.7000   6.4166372e-15
       6236.0000   6.3744316e-15
       6237.3000   6.4791395e-15
       6238.6000   6.5773238e-15
       6239.9000   6.5728718e-15
       6241.2000   6.5419600e-15
       6242.5000   6.6646817e-15
       6243.8000   6.8362506e-15
       6245.1000   6.7957180e-15
       6246.4000   6.6666530e-15
       6247.7000   6.6355741e-15
       6249.0000   6.5646095e-15
       6250.3000   6.5984569e-15
       6251.6000   6.6479778e-15
       6252.9000   6.5793115e-15
       6254.2000   6.4663847e-15
       6255.5000   6.5998759e-15
       6256.8000   6.7800671e-15
       6258.1000   6.8763159e-15
       6259.4000   6.9006962e-15
       6260.7000   6.8854673e-15
       6262.0000   6.6580663e-15
       6263.3000   6.5482065e-15
       6264.6000   6.5126492e-15
       6265.9000   6.7536533e-15
       6267.2000   6.7127510e-15
       6268.5000   6.5865255e-15
       6269.8000   6.6146585e-15
       6271.1000   6.8307606e-15
       6272.4000   6.5795779e-15
       6273.7000   6.1462506e-15
       6275.0000   6.4010971e-15
       6276.3000   6.5624416e-15
       6277.6000   6.3768976e-15
       6278.9000   6.2881012e-15
       6280.2000   6.3747669e-15
       6281.5000   6.4782333e-15
       6282.8000   6.6021513e-15
       6284.1000   6.6092391e-15
       6285.4000   6.3714985e-15
       6286.7000   6.4389130e-15
       6288.0000   6.3346841e-15
       6289.3000   6.5145298e-15
       6290.6000   6.6464288e-15
       6291.9000   6.6791244e-15
       6293.2000   6.5905513e-15
       6294.5000   6.5194354e-15
       6295.8000   6.7004924e-15
       6297.1000   6.8875809e-15
       6298.4000   6.5566446e-15
       6299.7000   6.3754568e-15
       6301.0000   6.6402736e-15
       6302.3000   6.6983363e-15
       6303.6000   6.8026439e-15
       6304.9000   6.7126175e-15
       6306.2000   6.5961532e-15
       6307.5000   6.9761898e-15
       6308.8000   7.0126124e-15
       6310.1000   6.7623358e-15
       6311.4000   6.7981680e-15
       6312.7000   6.7991399e-15
       6314.0000   7.0405176e-15
       6315.3000   7.1199715e-15
       6316.6000   6.9770247e-15
       6317.9000   6.7313654e-15
       6319.2000   6.6841128e-15
       6320.5000   6.6836350e-15
       6321.8000   6.8651107e-15
       6323.1000   6.9766769e-15
       6324.4000   7.0917018e-15
       6325.7000   7.1221656e-15
       6327.0000   6.9207985e-15
       6328.3000   6.9804346e-15
       6329.6000   7.3381142e-15
       6330.9000   7.3413226e-15
       6332.2000   7.1722855e-15
       6333.5000   7.0862808e-15
       6334.8000   7.0368167e-15
       6336.1000   7.1040506e-15
       6337.4000   7.2313755e-15
       6338.7000   7.2985443e-15
       6340.0000   7.3332579e-15
       6341.3000   7.2942091e-15
       6342.6000   7.1560001e-15
       6343.9000   7.4412709e-15
       6345.2000   7.6089677e-15
       6346.5000   7.3434297e-15
       6347.8000   7.3130919e-15
       6349.1000   7.3024645e-15
       6350.4000   7.3155706e-15
       6351.7000   7.7299385e-15
       6353.0000   7.4548928e-15
       6354.3000   7.3389467e-15
       6355.6000   7.2921362e-15
       6356.9000   7.0892055e-15
       6358.2000   7.0911035e-15
       6359.5000   7.3164984e-15
       6360.8000   7.1604887e-15
       6362.1000   7.4920140e-15
       6363.4000   7.2141877e-15
       6364.7000   7.0522268e-15
       6366.0000   7.1410553e-15
       6367.3000   7.2130092e-15
       6368.6000   7.2179805e-15
       6369.9000   7.1967634e-15
       6371.2000   7.2564619e-15
       6372.5000   7.2167617e-15
       6373.8000   7.0317784e-15
       6375.1000   7.0565690e-15
       6376.4000   7.0941883e-15
       6377.7000   7.1628990e-15
       6379.0000   7.2173148e-15
       6380.3000   7.0970613e-15
       6381.6000   7.1737547e-15
       6382.9000   7.2572799e-15
       6384.2000   7.1531697e-15
       6385.5000   7.0813548e-15
       6386.8000   7.1491786e-15
       6388.1000   7.2067336e-15
       6389.4000   7.1043668e-15
       6390.7000   7.0963911e-15
       6392.0000   7.0323421e-15
       6393.3000   7.0190308e-15
       6394.6000   7.3081112e-15
       6395.9000   7.4090050e-15
       6397.2000   7.1448541e-15
       6398.5000   7.1729841e-15
       6399.8000   7.1924801e-15
       6401.1000   7.2570419e-15
       6402.4000   7.3359488e-15
       6403.7000   7.2930251e-15
       6405.0000   7.1018156e-15
       6406.3000   7.0683097e-15
       6407.6000   7.2991092e-15
       6408.9000   7.1272407e-15
       6410.2000   6.9867802e-15
       6411.5000   7.0622953e-15
       6412.8000   6.9954187e-15
       6414.1000   6.9837075e-15
       6415.4000   7.0887896e-15
       6416.7000   7.0181699e-15
       6418.0000   7.2284442e-15
       6419.3000   7.1721216e-15
       6420.6000   7.2496798e-15
       6421.9000   7.2226373e-15
       6423.2000   7.2734702e-15
       6424.5000   7.3281792e-15
       6425.8000   7.1286907e-15
       6427.1000   6.9436501e-15
       6428.4000   7.2914717e-15
       6429.7000   7.2145750e-15
       6431.0000   7.1417407e-15
       6432.3000   7.1194553e-15
       6433.6000   7.4533100e-15
       6434.9000   7.6189342e-15
       6436.2000   7.3272645e-15
       6437.5000   7.0857760e-15
       6438.8000   7.3176460e-15
       6440.1000   7.3855236e-15
       6441.4000   7.1232786e-15
       6442.7000   7.0058261e-15
       6444.0000   7.2898076e-15
       6445.3000   7.2480946e-15
       6446.6000   7.1940716e-15
       6447.9000   7.1126980e-15
       6449.2000   7.1384590e-15
       6450.5000   7.5165410e-15
       6451.8000   7.2918394e-15
       6453.1000   7.2846519e-15
       6454.4000   7.0010396e-15
       6455.7000   7.0400477e-15
       6457.0000   7.3795463e-15
       6458.3000   7.3856007e-15
       6459.6000   7.1390686e-15
       6460.9000   6.9994147e-15
       6462.2000   7.1129278e-15
       6463.5000   6.9979910e-15
       6464.8000   7.2745974e-15
       6466.1000   7.4962469e-15
       6467.4000   7.4365631e-15
       6468.7000   7.3602443e-15
       6470.0000   7.2084694e-15
       6471.3000   7.4321920e-15
       6472.6000   7.5017793e-15
       6473.9000   7.2132952e-15
       6475.2000   7.2583362e-15
       6476.5000   7.4347640e-15
       6477.8000   7.3761820e-15
       6479.1000   7.1537710e-15
       6480.4000   7.0188127e-15
       6481.7000   7.1228092e-15
       6483.0000   7.2808545e-15
       6484.3000   7.4826873e-15
       6485.6000   7.4868154e-15
       6486.9000   7.2084376e-15
       6488.2000   7.0529499e-15
       6489.5000   6.9853733e-15
       6490.8000   6.8975254e-15
       6492.1000   6.9347262e-15
       6493.4000   7.0090777e-15
       6494.7000   7.0290501e-15
       6496.0000   7.0405185e-15
       6497.3000   7.1331247e-15
       6498.6000   7.1139838e-15
       6499.9000   6.9491635e-15
       6501.2000   6.8611538e-15
       6502.5000   6.9604192e-15
       6503.8000   6.8467995e-15
       6505.1000   6.8117105e-15
       6506.4000   6.7354597e-15
       6507.7000   6.6514876e-15
       6509.0000   6.8495797e-15
       6510.3000   6.9123200e-15
       6511.6000   6.7894066e-15
       6512.9000   6.9584851e-15
       6514.2000   6.8647175e-15
       6515.5000   6.4516375e-15
       6516.8000   6.8355555e-15
       6518.1000   7.1576456e-15
       6519.4000   6.8638855e-15
       6520.7000   6.7983018e-15
       6522.0000   6.8326946e-15
       6523.3000   6.8797322e-15
       6524.6000   6.8743453e-15
       6525.9000   6.7378608e-15
       6527.2000   6.9613086e-15
       6528.5000   6.7328383e-15
       6529.8000   6.6700950e-15
       6531.1000   6.7398244e-15
       6532.4000   6.8041987e-15
       6533.7000   6.7772266e-15
       6535.0000   6.6257967e-15
       6536.3000   6.6178862e-15
       6537.6000   6.6194353e-15
       6538.9000   6.7035179e-15
       6540.2000   6.7054008e-15
       6541.5000   6.6163641e-15
       6542.8000   6.5433679e-15
       6544.1000   6.5783758e-15
       6545.4000   6.5687771e-15
       6546.7000   6.8556893e-15
       6548.0000   6.6554782e-15
       6549.3000   6.3898024e-15
       6550.6000   6.4669837e-15
       6551.9000   6.5505975e-15
       6553.2000   6.6143652e-15
       6554.5000   6.4656420e-15
       6555.8000   6.5680116e-15
       6557.1000   6.6304946e-15
       6558.4000   6.3747754e-15
       6559.7000   6.4260357e-15
       6561.0000   6.5252037e-15
       6562.3000   6.4442391e-15
       6563.6000   6.5241189e-15
       6564.9000   6.4752710e-15
       6566.2000   6.4479869e-15
       6567.5000   6.3715808e-15
       6568.8000   6.3464245e-15
       6570.1000   6.4364052e-15
       6571.4000   6.3330438e-15
       6572.7000   6.2521784e-15
       6574.0000   6.2747491e-15
       6575.3000   6.1091060e-15
       6576.6000   6.0530349e-15
       6577.9000   6.1500252e-15
       6579.2000   6.1325161e-15
       6580.5000   5.9840247e-15
       6581.8000   6.0551021e-15
       6583.1000   6.1672580e-15
       6584.4000   6.0385968e-15
       6585.7000   5.9967725e-15
       6587.0000   6.1155952e-15
       6588.3000   6.2886358e-15
       6589.6000   6.1586470e-15
       6590.9000   6.1869157e-15
       6592.2000   6.9286290e-15
       6593.5000   8.3488785e-15
       6594.8000   9.9323503e-15
       6596.1000   1.1364137e-14
       6597.4000   1.2257786e-14
       6598.7000   1.0045289e-14
       6600.0000   6.9675926e-15
       6601.3000   5.8798676e-15
       6602.6000   6.0691158e-15
       6603.9000   5.9800706e-15
       6605.2000   5.8652539e-15
       6606.5000   5.8720916e-15
       6607.8000   5.8159153e-15
       6609.1000   5.7927934e-15
       6610.4000   5.7135577e-15
       6611.7000   5.4221761e-15
       6613.0000   5.3989580e-15
       6614.3000   5.2541532e-15
       6615.6000   4.9601568e-15
       6616.9000   4.9662062e-15
       6618.2000   5.4412852e-15
       6619.5000   5.5377311e-15
       6620.8000   5.4066069e-15
       6622.1000   5.5306615e-15
       6623.4000   5.6982378e-15
       6624.7000   5.9429805e-15
       6626.0000   5.9263305e-15
       6627.3000   5.8463946e-15
       6628.6000   5.9737571e-15
       6629.9000   6.0281976e-15
       6631.2000   5.9710656e-15
       6632.5000   6.1423333e-15
       6633.8000   6.0227361e-15
       6635.1000   5.8403139e-15
       6636.4000   5.9111198e-15
       6637.7000   5.9908194e-15
       6639.0000   6.0159925e-15
       6640.3000   5.8654323e-15
       6641.6000   5.8055148e-15
       6642.9000   5.9089939e-15
       6644.2000   6.0253675e-15
       6645.5000   6.1089510e-15
       6646.8000   6.0134767e-15
       6648.1000   5.8391470e-15
       6649.4000   5.7688386e-15
       6650.7000   5.9063947e-15
       6652.0000   6.0410229e-15
       6653.3000   6.0294914e-15
       6654.6000   5.8999941e-15
       6655.9000   5.9039045e-15
       6657.2000   5.9649350e-15
       6658.5000   5.8061289e-15
       6659.8000   5.9049250e-15
       6661.1000   5.9672082e-15
       6662.4000   5.8321186e-15
       6663.7000   5.7699530e-15
       6665.0000   6.0601635e-15
       6666.3000   5.9443939e-15
       6667.6000   5.8132182e-15
       6668.9000   5.8991178e-15
       6670.2000   5.9891772e-15
       6671.5000   5.7977431e-15
       6672.8000   5.7635359e-15
       6674.1000   5.7701050e-15
       6675.4000   5.8572007e-15
       6676.7000   5.7426845e-15
       6678.0000   5.7221760e-15
       6679.3000   5.7786446e-15
       6680.6000   5.6682404e-15
       6681.9000   5.6887495e-15
       6683.2000   5.7310211e-15
       6684.5000   5.7551016e-15
       6685.8000   5.6879596e-15
       6687.1000   5.6721365e-15
       6688.4000   5.5554699e-15
       6689.7000   5.8914152e-15
       6691.0000   5.7192832e-15
       6692.3000   5.6917636e-15
       6693.6000   5.6785119e-15
       6694.9000   5.3972853e-15
       6696.2000   5.5373668e-15
       6697.5000   5.4920712e-15
       6698.8000   5.6345262e-15
       6700.1000   5.8136843e-15
       6701.4000   5.5595867e-15
       6702.7000   5.4872157e-15
       6704.0000   5.4770968e-15
       6705.3000   5.3733691e-15
       6706.6000   5.4809576e-15
       6707.9000   5.4697482e-15
       6709.2000   5.5819410e-15
       6710.5000   5.4939572e-15
       6711.8000   5.4302416e-15
       6713.1000   5.5487211e-15
       6714.4000   5.4264994e-15
       6715.7000   5.3144657e-15
       6717.0000   5.3605564e-15
       6718.3000   5.5884005e-15
       6719.6000   5.6438380e-15
       6720.9000   5.4756389e-15
       6722.2000   5.4129246e-15
       6723.5000   5.3144224e-15
       6724.8000   5.2703385e-15
       6726.1000   5.3582932e-15
       6727.4000   5.4446825e-15
       6728.7000   5.3880811e-15
       6730.0000   5.3729420e-15
       6731.3000   5.4210108e-15
       6732.6000   5.3732835e-15
       6733.9000   5.4616587e-15
       6735.2000   5.4733917e-15
       6736.5000   5.3402696e-15
       6737.8000   5.2585111e-15
       6739.1000   5.2378457e-15
       6740.4000   5.3024828e-15
       6741.7000   5.2823209e-15
       6743.0000   5.2106190e-15
       6744.3000   5.2636618e-15
       6745.6000   5.1027063e-15
       6746.9000   5.0939350e-15
       6748.2000   4.9934371e-15
       6749.5000   5.0612071e-15
       6750.8000   5.1684913e-15
       6752.1000   5.2918709e-15
       6753.4000   5.1329910e-15
       6754.7000   5.2358865e-15
       6756.0000   5.2661610e-15
       6757.3000   4.9967123e-15
       6758.6000   5.1691320e-15
       6759.9000   5.3172057e-15
       6761.2000   5.0824442e-15
       6762.5000   5.0178706e-15
       6763.8000   5.0725082e-15
       6765.1000   5.0411069e-15
       6766.4000   5.1902300e-15
       6767.7000   5.1736648e-15
       6769.0000   5.2400982e-15
       6770.3000   5.3186367e-15
       6771.6000   5.1393641e-15
       6772.9000   5.1960217e-15
       6774.2000   5.3315819e-15
       6775.5000   5.2963247e-15
       6776.8000   5.2682370e-15
       6778.1000   5.2830153e-15
       6779.4000   5.2676683e-15
       6780.7000   5.1743198e-15
       6782.0000   5.1839064e-15
       6783.3000   5.3335205e-15
       6784.6000   5.3930218e-15
       6785.9000   5.3963516e-15
       6787.2000   5.2824208e-15
       6788.5000   5.2728176e-15
       6789.8000   5.5048667e-15
       6791.1000   5.5436947e-15
       6792.4000   5.2150863e-15
       6793.7000   4.9591146e-15
       6795.0000   5.0366519e-15
       6796.3000   5.2287473e-15
       6797.6000   5.1827369e-15
       6798.9000   5.1961652e-15
       6800.2000   5.2326098e-15
       6801.5000   5.1906256e-15
       6802.8000   5.2069378e-15
       6804.1000   5.3389435e-15
       6805.4000   5.4461201e-15
       6806.7000   5.4185666e-15
       6808.0000   5.2152695e-15
       6809.3000   5.2028365e-15
       6810.6000   5.1873512e-15
       6811.9000   5.1591521e-15
       6813.2000   5.1235963e-15
       6814.5000   5.1097924e-15
       6815.8000   5.1071970e-15
       6817.1000   5.2205140e-15
       6818.4000   5.1720850e-15
       6819.7000   5.1682735e-15
       6821.0000   5.3195664e-15
       6822.3000   5.3593473e-15
       6823.6000   5.2581265e-15
       6824.9000   5.2311954e-15
       6826.2000   5.1266531e-15
       6827.5000   4.9921584e-15
       6828.8000   4.9448145e-15
       6830.1000   5.0253472e-15
       6831.4000   5.0504206e-15
       6832.7000   5.1095013e-15
       6834.0000   5.1721672e-15
       6835.3000   5.0307875e-15
       6836.6000   4.9377594e-15
       6837.9000   5.0437825e-15
       6839.2000   5.1363840e-15
       6840.5000   5.1454419e-15
       6841.8000   5.1369581e-15
       6843.1000   5.1769590e-15
       6844.4000   5.3583866e-15
       6845.7000   5.1875485e-15
       6847.0000   4.9199522e-15
       6848.3000   5.2105350e-15
       6849.6000   5.4001780e-15
       6850.9000   5.0076821e-15
       6852.2000   4.9340960e-15
       6853.5000   4.9975455e-15
       6854.8000   5.0379904e-15
       6856.1000   5.0601094e-15
       6857.4000   5.1375173e-15
       6858.7000   5.1549950e-15
       6860.0000   4.9488701e-15
       6861.3000   5.1059580e-15
       6862.6000   5.3540552e-15
       6863.9000   5.2572955e-15
       6865.2000   4.9949888e-15
       6866.5000   4.8073368e-15
       6867.8000   4.9880296e-15
       6869.1000   5.1662383e-15
       6870.4000   5.1816599e-15
       6871.7000   5.1530865e-15
       6873.0000   5.1089640e-15
       6874.3000   5.1215088e-15
       6875.6000   4.9660372e-15
       6876.9000   4.8060838e-15
       6878.2000   4.8733380e-15
       6879.5000   4.9595485e-15
       6880.8000   4.9577197e-15
       6882.1000   4.8390691e-15
       6883.4000   4.7095576e-15
       6884.7000   4.6630730e-15
       6886.0000   4.6658060e-15
       6887.3000   4.7192465e-15
       6888.6000   4.6753951e-15
       6889.9000   4.5697254e-15
       6891.2000   4.6587370e-15
       6892.5000   4.9318112e-15
       6893.8000   4.8117749e-15
       6895.1000   4.6053734e-15
       6896.4000   4.6777834e-15
       6897.7000   4.4925729e-15
       6899.0000   4.1786317e-15
       6900.3000   4.3257136e-15
       6901.6000   4.5116642e-15
       6902.9000   4.6923440e-15
       6904.2000   4.7427383e-15
       6905.5000   4.5588458e-15
       6906.8000   4.5819779e-15
       6908.1000   4.5138714e-15
       6909.4000   4.4995044e-15
       6910.7000   4.6140257e-15
       6912.0000   4.5681523e-15
       6913.3000   4.6293500e-15
       6914.6000   4.4832885e-15
       6915.9000   4.3598385e-15
       6917.2000   4.5650659e-15
       6918.5000   4.7492169e-15
       6919.8000   4.8474868e-15
       6921.1000   4.5360381e-15
       6922.4000   4.5947553e-15
       6923.7000   4.5803510e-15
       6925.0000   4.5455717e-15
       6926.3000   4.5426911e-15
       6927.6000   4.4603087e-15
       6928.9000   4.4816744e-15
       6930.2000   4.5571259e-15
       6931.5000   4.6277865e-15
       6932.8000   4.5279610e-15
       6934.1000   4.6197300e-15
       6935.4000   4.8018468e-15
       6936.7000   4.5366990e-15
       6938.0000   4.5083450e-15
       6939.3000   4.6829528e-15
       6940.6000   4.6720445e-15
       6941.9000   4.6423575e-15
       6943.2000   4.5923572e-15
       6944.5000   4.5181850e-15
       6945.8000   4.4903003e-15
       6947.1000   4.6664177e-15
       6948.4000   4.5899289e-15
       6949.7000   4.5164821e-15
       6951.0000   4.6259471e-15
       6952.3000   4.6030472e-15
       6953.6000   4.6581763e-15
       6954.9000   4.8770210e-15
       6956.2000   4.9362348e-15
       6957.5000   4.7339675e-15
       6958.8000   4.6833365e-15
       6960.1000   4.8952712e-15
       6961.4000   4.7464681e-15
       6962.7000   4.5790073e-15
       6964.0000   4.5599837e-15
       6965.3000   4.6778717e-15
       6966.6000   4.8200619e-15
       6967.9000   4.7950092e-15
       6969.2000   4.7890457e-15
       6970.5000   4.8984644e-15
       6971.8000   4.9034061e-15
       6973.1000   4.7297179e-15
       6974.4000   4.7466991e-15
       6975.7000   4.8248168e-15
       6977.0000   4.8734764e-15
       6978.3000   4.8839333e-15
       6979.6000   4.7855305e-15
       6980.9000   4.8663198e-15
       6982.2000   4.9385152e-15
       6983.5000   4.9291047e-15
       6984.8000   4.9322569e-15
       6986.1000   4.7331043e-15
       6987.4000   4.7077494e-15
       6988.7000   4.7238487e-15
       6990.0000   4.8748157e-15
       6991.3000   5.1557339e-15
       6992.6000   5.1657902e-15
       6993.9000   4.8985337e-15
       6995.2000   4.6792135e-15
       6996.5000   4.8071785e-15
       6997.8000   4.9272545e-15
       6999.1000   4.8696704e-15
       7000.4000   4.8875710e-15
       7001.7000   4.9770883e-15
       7003.0000   4.8935007e-15
       7004.3000   4.7125943e-15
       7005.6000   4.7187384e-15
       7006.9000   4.8499861e-15
       7008.2000   4.8962450e-15
       7009.5000   4.9437399e-15
       7010.8000   4.8826694e-15
       7012.1000   4.7975120e-15
       7013.4000   4.7952440e-15
       7014.7000   4.9977147e-15
       7016.0000   5.2157630e-15
       7017.3000   5.0292024e-15
       7018.6000   4.8708924e-15
       7019.9000   4.9363645e-15
       7021.2000   4.9935103e-15
       7022.5000   4.9650789e-15
       7023.8000   4.9723163e-15
       7025.1000   4.9167497e-15
       7026.4000   4.8834470e-15
       7027.7000   4.9584474e-15
       7029.0000   4.9078560e-15
       7030.3000   4.8445322e-15
       7031.6000   4.8158335e-15
       7032.9000   4.7728713e-15
       7034.2000   4.8637332e-15
       7035.5000   4.9810878e-15
       7036.8000   4.8907390e-15
       7038.1000   4.7886185e-15
       7039.4000   4.8978514e-15
       7040.7000   4.9546519e-15
       7042.0000   4.8557306e-15
       7043.3000   4.8863204e-15
       7044.6000   4.9438536e-15
       7045.9000   4.9155823e-15
       7047.2000   5.0287707e-15
       7048.5000   5.0676870e-15
       7049.8000   5.0675928e-15
       7051.1000   5.2108673e-15
       7052.4000   5.0309238e-15
       7053.7000   4.9558105e-15
       7055.0000   5.0984024e-15
       7056.3000   5.1672032e-15
       7057.6000   5.0843308e-15
       7058.9000   5.0319490e-15
       7060.2000   4.9947303e-15
       7061.5000   4.9968289e-15
       7062.8000   5.1363043e-15
       7064.1000   5.0554845e-15
       7065.4000   5.2024098e-15
       7066.7000   4.9896552e-15
       7068.0000   4.8059495e-15
       7069.3000   4.7734278e-15
       7070.6000   4.8083944e-15
       7071.9000   4.9303164e-15
       7073.2000   4.8206596e-15
       7074.5000   5.0524979e-15
       7075.8000   5.0947396e-15
       7077.1000   4.9596359e-15
       7078.4000   5.1426918e-15
       7079.7000   5.0014148e-15
       7081.0000   4.7597077e-15
       7082.3000   4.8399039e-15
       7083.6000   5.0955945e-15
       7084.9000   4.9994798e-15
       7086.2000   4.7567656e-15
       7087.5000   4.7637005e-15
       7088.8000   5.0688503e-15
       7090.1000   5.0983586e-15
       7091.4000   4.8886874e-15
       7092.7000   4.8518276e-15
       7094.0000   4.8870747e-15
       7095.3000   4.8893393e-15
       7096.6000   4.9017021e-15
       7097.9000   4.8930842e-15
       7099.2000   4.8671986e-15
       7100.5000   4.8862368e-15
       7101.8000   5.0233725e-15
       7103.1000   5.1730986e-15
       7104.4000   4.9981320e-15
       7105.7000   4.8073687e-15
       7107.0000   4.8395867e-15
       7108.3000   5.0319192e-15
       7109.6000   5.0467344e-15
       7110.9000   4.9232384e-15
       7112.2000   4.8671380e-15
       7113.5000   4.9131364e-15
       7114.8000   5.0075139e-15
       7116.1000   4.9077718e-15
       7117.4000   4.7814445e-15
       7118.7000   4.9024085e-15
       7120.0000   4.9102251e-15
       7121.3000   4.7629701e-15
       7122.6000   4.9682112e-15
       7123.9000   5.1456413e-15
       7125.2000   4.9615236e-15
       7126.5000   4.8536482e-15
       7127.8000   4.9476357e-15
       7129.1000   5.0322691e-15
       7130.4000   4.9388123e-15
       7131.7000   4.8347941e-15
       7133.0000   4.8797586e-15
       7134.3000   4.9697623e-15
       7135.6000   4.9654321e-15
       7136.9000   4.8026631e-15
       7138.2000   4.7353354e-15
       7139.5000   4.7553272e-15
       7140.8000   4.9245940e-15
       7142.1000   4.9575229e-15
       7143.4000   4.8357220e-15
       7144.7000   4.5787106e-15
       7146.0000   4.6121085e-15
       7147.3000   4.8697113e-15
       7148.6000   4.6752731e-15
       7149.9000   4.6517286e-15
       7151.2000   4.8988359e-15
       7152.5000   4.4966031e-15
       7153.8000   4.5038973e-15
       7155.1000   4.7170211e-15
       7156.4000   4.7861793e-15
       7157.7000   4.7203996e-15
       7159.0000   4.7835497e-15
       7160.3000   4.8285334e-15
       7161.6000   4.6723101e-15
       7162.9000   4.7147069e-15
       7164.2000   4.7655182e-15
       7165.5000   4.6448561e-15
       7166.8000   4.3387528e-15
       7168.1000   4.4501898e-15
       7169.4000   4.5559030e-15
       7170.7000   4.5335826e-15
       7172.0000   4.5532641e-15
       7173.3000   4.5901034e-15
       7174.6000   4.4211955e-15
       7175.9000   4.4242976e-15
       7177.2000   4.4234594e-15
       7178.5000   4.4761388e-15
       7179.8000   4.4550236e-15
       7181.1000   4.3078495e-15
       7182.4000   4.3650395e-15
       7183.7000   4.3110711e-15
       7185.0000   4.2952650e-15
       7186.3000   4.2918509e-15
       7187.6000   4.1595880e-15
       7188.9000   4.2879768e-15
       7190.2000   4.4619162e-15
       7191.5000   4.2228298e-15
       7192.8000   4.2334877e-15
       7194.1000   4.2592349e-15
       7195.4000   4.1511396e-15
       7196.7000   4.3745168e-15
       7198.0000   4.4599022e-15
       7199.3000   4.3567344e-15
       7200.6000   4.2145966e-15
       7201.9000   4.2095500e-15
       7203.2000   4.2588126e-15
       7204.5000   4.2824528e-15
       7205.8000   4.4276826e-15
       7207.1000   4.4332770e-15
       7208.4000   4.3122541e-15
       7209.7000   4.1640003e-15
       7211.0000   4.0745433e-15
       7212.3000   4.0413969e-15
       7213.6000   4.1998799e-15
       7214.9000   4.2897870e-15
       7216.2000   4.0790003e-15
       7217.5000   4.0740725e-15
       7218.8000   4.2894263e-15
       7220.1000   4.2740589e-15
       7221.4000   4.1326972e-15
       7222.7000   4.0987943e-15
       7224.0000   4.4681348e-15
       7225.3000   4.4665962e-15
       7226.6000   4.0213029e-15
       7227.9000   4.1447697e-15
       7229.2000   4.5280844e-15
       7230.5000   4.4784511e-15
       7231.8000   4.0934851e-15
       7233.1000   4.0114871e-15
       7234.4000   4.3520987e-15
       7235.7000   4.2292917e-15
       7237.0000   4.1263859e-15
       7238.3000   4.1127617e-15
       7239.6000   4.1008984e-15
       7240.9000   3.9682112e-15
       7242.2000   4.1512092e-15
       7243.5000   4.3154171e-15
       7244.8000   4.1923860e-15
       7246.1000   4.0286415e-15
       7247.4000   4.0564771e-15
       7248.7000   4.0288891e-15
       7250.0000   4.1406824e-15
       7251.3000   4.2895729e-15
       7252.6000   4.3271685e-15
       7253.9000   4.1824497e-15
       7255.2000   4.0215646e-15
       7256.5000   4.0632825e-15
       7257.8000   3.9013942e-15
       7259.1000   3.9071206e-15
       7260.4000   3.9550242e-15
       7261.7000   3.9472623e-15
       7263.0000   4.0813105e-15
       7264.3000   4.1523718e-15
       7265.6000   3.9629706e-15
       7266.9000   3.8341895e-15
       7268.2000   3.9553986e-15
       7269.5000   3.9924801e-15
       7270.8000   3.8328573e-15
       7272.1000   3.9791187e-15
       7273.4000   4.1399249e-15
       7274.7000   3.9934765e-15
       7276.0000   3.8307709e-15
       7277.3000   3.7866234e-15
       7278.6000   3.7018843e-15
       7279.9000   3.8003055e-15
       7281.2000   4.0415013e-15
       7282.5000   3.9172422e-15
       7283.8000   3.8001383e-15
       7285.1000   3.9240951e-15
       7286.4000   3.9403699e-15
       7287.7000   3.8732101e-15
       7289.0000   3.9318729e-15
       7290.3000   3.9796712e-15
       7291.6000   3.8435447e-15
       7292.9000   3.8818789e-15
       7294.2000   3.9405527e-15
       7295.5000   3.9732092e-15
       7296.8000   3.9527305e-15
       7298.1000   3.6570680e-15
       7299.4000   3.6570185e-15
       7300.7000   3.7457452e-15
       7302.0000   3.8428581e-15
       7303.3000   3.5419295e-15
       7304.6000   3.5412639e-15
       7305.9000   3.6108073e-15
       7307.2000   3.4200650e-15
       7308.5000   3.4822543e-15
       7309.8000   3.5238343e-15
       7311.1000   3.8333102e-15
       7312.4000   3.8254241e-15
       7313.7000   3.6849758e-15
       7315.0000   3.5008068e-15
       7316.3000   3.8368566e-15
       7317.6000   4.0088225e-15
       7318.9000   3.7760743e-15
       7320.2000   3.7805733e-15
       7321.5000   3.7077096e-15
       7322.8000   3.7752131e-15
       7324.1000   3.5218607e-15
       7325.4000   3.6215400e-15
       7326.7000   3.7105824e-15
       7328.0000   3.6477233e-15
       7329.3000   3.6627277e-15
       7330.6000   3.6669262e-15
       7331.9000   3.8696030e-15
       7333.2000   3.8992203e-15
       7334.5000   3.7072372e-15
       7335.8000   3.5921635e-15
       7337.1000   3.5064009e-15
       7338.4000   3.5389773e-15
       7339.7000   3.5444917e-15
       7341.0000   3.6044127e-15
       7342.3000   3.6565429e-15
       7343.6000   3.5526589e-15
       7344.9000   3.6202258e-15
       7346.2000   3.7491499e-15
       7347.5000   3.6468431e-15
       7348.8000   3.5899429e-15
       7350.1000   3.5719261e-15
       7351.4000   3.5163652e-15
       7352.7000   3.4292327e-15
       7354.0000   3.4783085e-15
       7355.3000   3.6259595e-15
       7356.6000   3.4746719e-15
       7357.9000   3.3425870e-15
       7359.2000   3.5123507e-15
       7360.5000   3.4624864e-15
       7361.8000   3.3323973e-15
       7363.1000   3.4277020e-15
       7364.4000   3.6259677e-15
       7365.7000   3.6344164e-15
       7367.0000   3.5855967e-15
       7368.3000   3.5696447e-15
       7369.6000   3.4145114e-15
       7370.9000   3.3123051e-15
       7372.2000   3.2667875e-15
       7373.5000   3.3227539e-15
       7374.8000   3.3351426e-15
       7376.1000   3.4075981e-15
       7377.4000   3.4704815e-15
       7378.7000   3.3461140e-15
       7380.0000   3.3546527e-15
       7381.3000   3.4174814e-15
       7382.6000   3.3093241e-15
       7383.9000   3.3431177e-15
       7385.2000   3.4010632e-15
       7386.5000   3.4235183e-15
       7387.8000   3.4637568e-15
       7389.1000   3.4837330e-15
       7390.4000   3.3740915e-15
       7391.7000   3.3197968e-15
       7393.0000   3.2304179e-15
       7394.3000   3.2182690e-15
       7395.6000   3.2649174e-15
       7396.9000   3.2726581e-15
       7398.2000   3.3195510e-15
       7399.5000   3.1417797e-15
       7400.8000   3.2148916e-15
       7402.1000   3.3224392e-15
       7403.4000   3.3793014e-15
       7404.7000   3.1477563e-15
       7406.0000   3.1113897e-15
       7407.3000   3.2323676e-15
       7408.6000   3.2025014e-15
       7409.9000   3.0993315e-15
       7411.2000   3.1398198e-15
       7412.5000   3.1271293e-15
       7413.8000   3.0980571e-15
       7415.1000   3.1840359e-15
       7416.4000   3.1314764e-15
       7417.7000   2.9918325e-15
       7419.0000   3.0182819e-15
       7420.3000   3.1053106e-15
       7421.6000   3.0149038e-15
       7422.9000   2.9752224e-15
       7424.2000   3.0725705e-15
       7425.5000   3.1238406e-15
       7426.8000   3.0841516e-15
       7428.1000   3.0807271e-15
       7429.4000   3.1352889e-15
       7430.7000   3.1836815e-15
       7432.0000   3.1425702e-15
       7433.3000   3.1017482e-15
       7434.6000   3.0767821e-15
       7435.9000   3.0364846e-15
       7437.2000   3.0020570e-15
       7438.5000   2.9633364e-15
       7439.8000   3.0586790e-15
       7441.1000   3.0853774e-15
       7442.4000   3.0229307e-15
       7443.7000   3.1067020e-15
       7445.0000   3.0746341e-15
       7446.3000   2.9724637e-15
       7447.6000   3.0205585e-15
       7448.9000   3.0732572e-15
       7450.2000   3.1279137e-15
       7451.5000   3.1426984e-15
       7452.8000   3.2048143e-15
       7454.1000   3.1520861e-15
       7455.4000   3.2345968e-15
       7456.7000   3.1671630e-15
       7458.0000   3.1174805e-15
       7459.3000   3.1524978e-15
       7460.6000   3.0816853e-15
       7461.9000   3.0330826e-15
       7463.2000   3.1329669e-15
       7464.5000   3.1180316e-15
       7465.8000   3.2046704e-15
       7467.1000   3.1730174e-15
       7468.4000   3.0912004e-15
       7469.7000   2.9098455e-15
       7471.0000   3.1514414e-15
       7472.3000   3.2310139e-15
       7473.6000   3.1676939e-15
       7474.9000   3.0618452e-15
       7476.2000   3.0751920e-15
       7477.5000   3.1154414e-15
       7478.8000   3.1977252e-15
       7480.1000   3.0902818e-15
       7481.4000   3.0909661e-15
       7482.7000   3.0807188e-15
       7484.0000   3.1099456e-15
       7485.3000   3.1162469e-15
       7486.6000   3.1410152e-15
       7487.9000   3.1154600e-15
       7489.2000   3.1911260e-15
       7490.5000   3.1657602e-15
       7491.8000   3.0713442e-15
       7493.1000   3.1084358e-15
       7494.4000   3.1341132e-15
       7495.7000   3.2003635e-15
       7497.0000   3.1784709e-15
       7498.3000   3.1928928e-15
       7499.6000   3.2206254e-15
       7500.9000   3.1906749e-15
       7502.2000   3.1388368e-15
       7503.5000   3.1501442e-15
       7504.8000   3.1513791e-15
       7506.1000   3.1234493e-15
       7507.4000   3.1628289e-15
       7508.7000   3.1751187e-15
       7510.0000   3.1931264e-15
       7511.3000   3.2430594e-15
       7512.6000   3.2727788e-15
       7513.9000   3.2583478e-15
       7515.2000   3.2015292e-15
       7516.5000   3.2169614e-15
       7517.8000   3.2652869e-15
       7519.1000   3.3128360e-15
       7520.4000   3.2535524e-15
       7521.7000   3.1670241e-15
       7523.0000   3.2162691e-15
       7524.3000   3.2498931e-15
       7525.6000   3.3441881e-15
       7526.9000   3.3950244e-15
       7528.2000   3.2525887e-15
       7529.5000   3.1101257e-15
       7530.8000   3.1675177e-15
       7532.1000   3.2890618e-15
       7533.4000   3.3194988e-15
       7534.7000   3.2829910e-15
       7536.0000   3.2796885e-15
       7537.3000   3.3458043e-15
       7538.6000   3.3138695e-15
       7539.9000   3.2047218e-15
       7541.2000   3.2424421e-15
       7542.5000   3.1162162e-15
       7543.8000   3.1604668e-15
       7545.1000   3.4102699e-15
       7546.4000   3.4137855e-15
       7547.7000   3.2309248e-15
       7549.0000   3.3408015e-15
       7550.3000   3.2915591e-15
       7551.6000   3.3001892e-15
       7552.9000   3.3564377e-15
       7554.2000   3.3289323e-15
       7555.5000   3.2799302e-15
       7556.8000   3.3413252e-15
       7558.1000   3.3381061e-15
       7559.4000   3.4182710e-15
       7560.7000   3.4312596e-15
       7562.0000   3.3550557e-15
       7563.3000   3.4740009e-15
       7564.6000   3.4270098e-15
       7565.9000   3.3550460e-15
       7567.2000   3.4990631e-15
       7568.5000   3.5604656e-15
       7569.8000   3.5458635e-15
       7571.1000   3.4326310e-15
       7572.4000   3.3342038e-15
       7573.7000   3.4485817e-15
       7575.0000   3.5402773e-15
       7576.3000   3.5129404e-15
       7577.6000   3.5279450e-15
       7578.9000   3.6301017e-15
       7580.2000   3.5999213e-15
       7581.5000   3.5360962e-15
       7582.8000   3.5131929e-15
       7584.1000   3.5299536e-15
       7585.4000   3.4421184e-15
       7586.7000   3.4568711e-15
       7588.0000   3.6496253e-15
       7589.3000   3.6201328e-15
       7590.6000   3.4718540e-15
       7591.9000   3.2925956e-15
       7593.2000   3.4807714e-15
       7594.5000   3.6870034e-15
       7595.8000   3.4258555e-15
       7597.1000   3.5593554e-15
       7598.4000   3.8980025e-15
       7599.7000   3.9560937e-15
       7601.0000   3.5180607e-15
       7602.3000   3.5082028e-15
       7603.6000   3.6426654e-15
       7604.9000   3.3323027e-15
       7606.2000   3.1969914e-15
       7607.5000   3.2665568e-15
       7608.8000   3.4259171e-15
       7610.1000   3.4500251e-15
       7611.4000   3.5225217e-15
       7612.7000   3.3706638e-15
       7614.0000   3.3616400e-15
       7615.3000   3.7712654e-15
       7616.6000   3.6321430e-15
       7617.9000   3.5996175e-15
       7619.2000   3.5422963e-15
       7620.5000   3.5498739e-15
       7621.8000   3.4914192e-15
       7623.1000   3.6044594e-15
       7624.4000   3.7531405e-15
       7625.7000   3.5165994e-15
       7627.0000   3.1727265e-15
       7628.3000   3.1574982e-15
       7629.6000   3.6581423e-15
       7630.9000   3.9993441e-15
       7632.2000   3.5762347e-15
       7633.5000   3.3044038e-15
       7634.8000   3.6055363e-15
       7636.1000   3.6193412e-15
       7637.4000   3.3796929e-15
       7638.7000   3.3256397e-15
       7640.0000   3.4190255e-15
       7641.3000   3.4445545e-15
       7642.6000   3.4405354e-15
       7643.9000   3.5448441e-15
       7645.2000   3.7162172e-15
       7646.5000   3.5894526e-15
       7647.8000   3.3426490e-15
       7649.1000   3.3349316e-15
       7650.4000   3.4434524e-15
       7651.7000   3.4878691e-15
       7653.0000   3.6300869e-15
       7654.3000   3.7270197e-15
       7655.6000   3.6232059e-15
       7656.9000   3.6446950e-15
       7658.2000   3.5460188e-15
       7659.5000   3.4065862e-15
       7660.8000   3.4301450e-15
       7662.1000   3.5939562e-15
       7663.4000   3.7238908e-15
       7664.7000   3.7864489e-15
       7666.0000   3.7845823e-15
       7667.3000   3.7558742e-15
       7668.6000   3.8477126e-15
       7669.9000   3.5838237e-15
       7671.2000   3.4693599e-15
       7672.5000   3.5489385e-15
       7673.8000   3.4402008e-15
       7675.1000   3.3919479e-15
       7676.4000   3.4172549e-15
       7677.7000   3.6050084e-15
       7679.0000   3.6488120e-15
       7680.3000   3.5646577e-15
       7681.6000   3.6002668e-15
       7682.9000   3.6263830e-15
       7684.2000   3.5605282e-15
       7685.5000   3.4731488e-15
       7686.8000   3.7081918e-15
       7688.1000   3.6761227e-15
       7689.4000   3.5042874e-15
       7690.7000   3.5142765e-15
       7692.0000   3.5470594e-15
       7693.3000   3.6600209e-15
       7694.6000   3.6583213e-15
       7695.9000   3.5495005e-15
       7697.2000   3.5917384e-15
       7698.5000   3.7197050e-15
       7699.8000   3.7044437e-15
       7701.1000   3.5199811e-15
       7702.4000   3.4267399e-15
       7703.7000   3.6237217e-15
       7705.0000   3.6753868e-15
       7706.3000   3.8489743e-15
       7707.6000   3.9007663e-15
       7708.9000   3.7934466e-15
       7710.2000   3.6345466e-15
       7711.5000   3.6602379e-15
       7712.8000   3.6777050e-15
       7714.1000   3.4619971e-15
       7715.4000   3.4704369e-15
       7716.7000   3.5293248e-15
       7718.0000   3.6054998e-15
       7719.3000   3.7594340e-15
       7720.6000   3.6554103e-15
       7721.9000   3.5398484e-15
       7723.2000   3.5592333e-15
       7724.5000   3.5236889e-15
       7725.8000   3.4272384e-15
       7727.1000   3.4886266e-15
       7728.4000   3.6273927e-15
       7729.7000   3.4819252e-15
       7731.0000   3.3836916e-15
       7732.3000   3.4807742e-15
       7733.6000   3.5435681e-15
       7734.9000   3.5062745e-15
       7736.2000   3.4593765e-15
       7737.5000   3.5275093e-15
       7738.8000   3.4793278e-15
       7740.1000   3.2454906e-15
       7741.4000   3.1755768e-15
       7742.7000   3.2530146e-15
       7744.0000   3.3224299e-15
       7745.3000   3.2943344e-15
       7746.6000   3.2864095e-15
       7747.9000   3.2315103e-15
       7749.2000   3.3044615e-15
       7750.5000   3.4692192e-15
       7751.8000   3.4782717e-15
       7753.1000   3.4577501e-15
       7754.4000   3.3835155e-15
       7755.7000   3.3231760e-15
       7757.0000   3.3118317e-15
       7758.3000   3.3396427e-15
       7759.6000   3.3505568e-15
       7760.9000   3.2921727e-15
       7762.2000   3.1226912e-15
       7763.5000   3.0713054e-15
       7764.8000   3.0430923e-15
       7766.1000   3.0607019e-15
       7767.4000   3.1880153e-15
       7768.7000   3.3340889e-15
       7770.0000   3.2418311e-15
       7771.3000   3.0959236e-15
       7772.6000   2.9652583e-15
       7773.9000   2.8578451e-15
       7775.2000   2.8733823e-15
       7776.5000   3.0292675e-15
       7777.8000   3.0595650e-15
       7779.1000   2.8264552e-15
       7780.4000   2.6628052e-15
       7781.7000   2.8891626e-15
       7783.0000   2.9792208e-15
       7784.3000   2.7904565e-15
       7785.6000   2.7981288e-15
       7786.9000   2.7807161e-15
       7788.2000   2.7177836e-15
       7789.5000   2.7294544e-15
       7790.8000   2.6877420e-15
       7792.1000   2.6450042e-15
       7793.4000   2.7348203e-15
       7794.7000   2.7346519e-15
       7796.0000   2.6425839e-15
       7797.3000   2.7375942e-15
       7798.6000   2.7145552e-15
       7799.9000   2.6304863e-15
       7801.2000   2.5581091e-15
       7802.5000   2.3776879e-15
       7803.8000   2.3858146e-15
       7805.1000   2.5653800e-15
       7806.4000   2.5536355e-15
       7807.7000   2.5272655e-15
       7809.0000   2.4645180e-15
       7810.3000   2.2704311e-15
       7811.6000   2.2864546e-15
       7812.9000   2.4420454e-15
       7814.2000   2.4330605e-15
       7815.5000   2.4192086e-15
       7816.8000   2.3534037e-15
       7818.1000   2.2578844e-15
       7819.4000   2.2168493e-15
       7820.7000   2.1554897e-15
       7822.0000   2.2020770e-15
       7823.3000   2.3164070e-15
       7824.6000   2.2801783e-15
       7825.9000   2.2245684e-15
       7827.2000   2.1702852e-15
       7828.5000   2.1801216e-15
       7829.8000   2.2273430e-15
       7831.1000   2.3071805e-15
       7832.4000   2.2318185e-15
       7833.7000   2.1878232e-15
       7835.0000   2.1578773e-15
       7836.3000   2.2361213e-15
       7837.6000   2.2922504e-15
       7838.9000   2.1583193e-15
       7840.2000   2.0347717e-15
       7841.5000   2.0527863e-15
       7842.8000   1.9385790e-15
       7844.1000   1.8007279e-15
       7845.4000   1.8690359e-15
       7846.7000   1.9043051e-15
       7848.0000   1.9331837e-15
       7849.3000   1.9565271e-15
       7850.6000   2.0345793e-15
       7851.9000   1.9829762e-15
       7853.2000   1.9686142e-15
       7854.5000   1.8639914e-15
       7855.8000   1.8180796e-15
       7857.1000   1.9361323e-15
       7858.4000   1.8999149e-15
       7859.7000   1.8191892e-15
       7861.0000   1.7969285e-15
       7862.3000   1.8017048e-15
       7863.6000   1.7843073e-15
       7864.9000   1.8025454e-15
       7866.2000   1.7477275e-15
       7867.5000   1.7738642e-15
       7868.8000   1.9759835e-15
       7870.1000   1.9412444e-15
       7871.4000   1.8940689e-15
       7872.7000   1.9558469e-15
       7874.0000   1.9063520e-15
       7875.3000   1.9571097e-15
       7876.6000   1.8350471e-15
       7877.9000   1.8136196e-15
       7879.2000   1.9884223e-15
       7880.5000   2.0450430e-15
       7881.8000   1.9135038e-15
       7883.1000   1.7941572e-15
       7884.4000   1.7966746e-15
       7885.7000   1.7547247e-15
       7887.0000   1.7495322e-15
       7888.3000   1.7235560e-15
       7889.6000   1.6806942e-15
       7890.9000   1.5466361e-15
       7892.2000   1.7182991e-15
       7893.5000   1.9077767e-15
       7894.8000   1.7673715e-15
       7896.1000   1.7293285e-15
       7897.4000   1.7048775e-15
       7898.7000   1.7545372e-15
       7900.0000   1.7542051e-15
       7901.3000   1.6302099e-15
       7902.6000   1.6020529e-15
       7903.9000   1.6714111e-15
       7905.2000   1.7486957e-15
       7906.5000   1.6879716e-15
       7907.8000   1.6496961e-15
       7909.1000   1.7229109e-15
       7910.4000   1.7054596e-15
       7911.7000   1.6872624e-15
       7913.0000   1.6016234e-15
       7914.3000   1.5567279e-15
       7915.6000   1.7194868e-15
       7916.9000   1.7178107e-15
       7918.2000   1.5873819e-15
       7919.5000   1.4392024e-15
       7920.8000   1.4573363e-15
       7922.1000   1.6018372e-15
       7923.4000   1.5783808e-15
       7924.7000   1.5824040e-15
       7926.0000   1.6247132e-15
       7927.3000   1.5461116e-15
       7928.6000   1.4504259e-15
       7929.9000   1.4494478e-15
       7931.2000   1.4640760e-15
       7932.5000   1.4475120e-15
       7933.8000   1.3977563e-15
       7935.1000   1.4922700e-15
       7936.4000   1.5275899e-15
       7937.7000   1.4023561e-15
       7939.0000   1.3648667e-15
       7940.3000   1.3596678e-15
       7941.6000   1.3404854e-15
       7942.9000   1.3258122e-15
       7944.2000   1.5077138e-15
       7945.5000   1.4288846e-15
       7946.8000   1.3939260e-15
       7948.1000   1.3756404e-15
       7949.4000   1.4205576e-15
       7950.7000   1.3957010e-15
       7952.0000   1.4433492e-15
       7953.3000   1.3629921e-15
       7954.6000   1.3402123e-15
       7955.9000   1.3985813e-15
       7957.2000   1.4830227e-15
       7958.5000   1.5165147e-15
       7959.8000   1.3962412e-15
       7961.1000   1.1682314e-15
       7962.4000   1.1571501e-15
       7963.7000   1.2423596e-15
       7965.0000   1.3152403e-15
       7966.3000   1.2946471e-15
       7967.6000   1.1604137e-15
       7968.9000   1.0599008e-15
       7970.2000   1.2788729e-15
       7971.5000   1.2882703e-15
       7972.8000   1.3712978e-15
       7974.1000   1.3933027e-15
       7975.4000   1.4182950e-15
       7976.7000   1.5091084e-15
       7978.0000   1.3798955e-15
       7979.3000   1.1453440e-15
       7980.6000   1.1959344e-15
       7981.9000   1.4002835e-15
       7983.2000   1.2499711e-15
       7984.5000   1.1840122e-15
       7985.8000   1.3434927e-15
       7987.1000   1.4062324e-15
       7988.4000   1.2580744e-15
       7989.7000   1.1881225e-15
       7991.0000   1.3880835e-15
       7992.3000   1.4476329e-15
       7993.6000   1.2426318e-15
       7994.9000   1.2382541e-15
       7996.2000   1.3169990e-15
       7997.5000   1.2334364e-15
       7998.8000   1.1544800e-15
       8000.1000   1.1463397e-15
       8001.4000   1.1423548e-15
       8002.7000   1.2248828e-15
       8004.0000   1.2535969e-15
       8005.3000   1.1863056e-15
       8006.6000   1.1605313e-15
       8007.9000   1.2545395e-15
       8009.2000   1.3505121e-15
       8010.5000   1.1947035e-15
       8011.8000   1.2282169e-15
       8013.1000   1.3687868e-15
       8014.4000   1.3385890e-15
       8015.7000   1.2798800e-15
       8017.0000   1.2203416e-15
       8018.3000   1.4020558e-15
       8019.6000   1.4790859e-15
       8020.9000   1.4720391e-15
       8022.2000   1.3621642e-15
       8023.5000   1.2710740e-15
       8024.8000   1.3047134e-15
       8026.1000   1.3662164e-15
       8027.4000   1.2638174e-15
       8028.7000   1.2271251e-15
       8030.0000   1.3295513e-15
       8031.3000   1.2224201e-15
       8032.6000   1.1686627e-15
       8033.9000   1.3280622e-15
       8035.2000   1.4130870e-15
       8036.5000   1.3208522e-15
       8037.8000   1.3146727e-15
       8039.1000   1.4326349e-15
       8040.4000   1.4811310e-15
       8041.7000   1.4596408e-15
       8043.0000   1.4220530e-15
       8044.3000   1.3181259e-15
       8045.6000   1.3741024e-15
       8046.9000   1.3940575e-15
       8048.2000   1.4783070e-15
       8049.5000   1.4903525e-15
       8050.8000   1.5896363e-15
       8052.1000   1.6194015e-15
       8053.4000   1.4339524e-15
       8054.7000   1.3737416e-15
       8056.0000   1.3797425e-15
       8057.3000   1.3563685e-15
       8058.6000   1.4686224e-15
       8059.9000   1.3988141e-15
       8061.2000   1.3105924e-15
       8062.5000   1.4276833e-15
       8063.8000   1.5393833e-15
       8065.1000   1.5378128e-15
       8066.4000   1.4104204e-15
       8067.7000   1.4475359e-15
       8069.0000   1.5158589e-15
       8070.3000   1.4739104e-15
       8071.6000   1.4839542e-15
       8072.9000   1.4836416e-15
       8074.2000   1.4815142e-15
       8075.5000   1.4369112e-15
       8076.8000   1.5326378e-15
       8078.1000   1.5954330e-15
       8079.4000   1.4859261e-15
       8080.7000   1.5041650e-15
       8082.0000   1.5911627e-15
       8083.3000   1.5938110e-15
       8084.6000   1.5334762e-15
       8085.9000   1.4753969e-15
       8087.2000   1.4785211e-15
       8088.5000   1.5512469e-15
       8089.8000   1.6510788e-15
       8091.1000   1.5618889e-15
       8092.4000   1.5486346e-15
       8093.7000   1.6493762e-15
       8095.0000   1.5826097e-15
       8096.3000   1.6411460e-15
       8097.6000   1.7009094e-15
       8098.9000   1.6525574e-15
       8100.2000   1.6185502e-15
       8101.5000   1.3843557e-15
       8102.8000   1.4081202e-15
       8104.1000   1.6468068e-15
       8105.4000   1.5947014e-15
       8106.7000   1.5378394e-15
       8108.0000   1.5127684e-15
       8109.3000   1.6160064e-15
       8110.6000   1.6810908e-15
       8111.9000   1.6387696e-15
       8113.2000   1.6901119e-15
       8114.5000   1.6314844e-15
       8115.8000   1.5502475e-15
       8117.1000   1.6876016e-15
       8118.4000   1.6506449e-15
       8119.7000   1.6047010e-15
       8121.0000   1.6923600e-15
       8122.3000   1.6604983e-15
       8123.6000   1.5622754e-15
       8124.9000   1.5991006e-15
       8126.2000   1.7187175e-15
       8127.5000   1.6676139e-15
       8128.8000   1.6494187e-15
       8130.1000   1.6377233e-15
       8131.4000   1.6840761e-15
       8132.7000   1.7583366e-15
       8134.0000   1.6846109e-15
       8135.3000   1.6946467e-15
       8136.6000   1.7188294e-15
       8137.9000   1.7873452e-15
       8139.2000   1.7978884e-15
       8140.5000   1.7554252e-15
       8141.8000   1.7407244e-15
       8143.1000   1.7491731e-15
       8144.4000   1.8365118e-15
       8145.7000   1.8250231e-15
       8147.0000   1.7676519e-15
       8148.3000   1.7341489e-15
       8149.6000   1.6148923e-15
       8150.9000   1.5841838e-15
       8152.2000   1.6901242e-15
       8153.5000   1.7586482e-15
       8154.8000   1.7494983e-15
       8156.1000   1.6839421e-15
       8157.4000   1.7165541e-15
       8158.7000   1.7935356e-15
       8160.0000   1.8228571e-15
       8161.3000   1.8067776e-15
       8162.6000   1.6958358e-15
       8163.9000   1.7613644e-15
       8165.2000   1.7039248e-15
       8166.5000   1.6481205e-15
       8167.8000   1.8198309e-15
       8169.1000   1.9198581e-15
       8170.4000   1.8818945e-15
       8171.7000   1.8786599e-15
       8173.0000   1.9079579e-15
       8174.3000   1.8236542e-15
       8175.6000   1.6901491e-15
       8176.9000   1.9540894e-15
       8178.2000   1.9892012e-15
       8179.5000   1.9781195e-15
       8180.8000   2.0438645e-15
       8182.1000   1.8114881e-15
       8183.4000   1.9339571e-15
       8184.7000   2.2093229e-15
       8186.0000   1.9294678e-15
       8187.3000   1.8292738e-15
       8188.6000   1.9139556e-15
       8189.9000   1.9800831e-15
       8191.2000   2.0506326e-15
       8192.5000   1.9750502e-15
       8193.8000   2.0089246e-15
       8195.1000   2.0105502e-15
       8196.4000   1.9530964e-15
       8197.7000   1.9707604e-15
       8199.0000   2.0171548e-15
       8200.3000   2.0345286e-15
       8201.6000   2.0288437e-15
       8202.9000   2.0586598e-15
       8204.2000   2.0456670e-15
       8205.5000   2.0189270e-15
       8206.8000   2.0149109e-15
       8208.1000   2.1723377e-15
       8209.4000   2.1628654e-15
       8210.7000   2.0265883e-15
       8212.0000   2.0679380e-15
       8213.3000   1.9700015e-15
       8214.6000   1.8941584e-15
       8215.9000   2.0847545e-15
       8217.2000   2.1930166e-15
       8218.5000   2.1135579e-15
       8219.8000   1.9945760e-15
       8221.1000   2.0655845e-15
       8222.4000   2.2574194e-15
       8223.7000   2.3366693e-15
       8225.0000   2.1194211e-15
       8226.3000   1.8948015e-15
       8227.6000   2.0220405e-15
       8228.9000   2.0556799e-15
       8230.2000   2.1183537e-15
       8231.5000   2.2519285e-15
       8232.8000   2.2541378e-15
       8234.1000   2.1361994e-15
       8235.4000   2.2022337e-15
       8236.7000   2.1671912e-15
       8238.0000   2.0779440e-15
       8239.3000   2.2241324e-15
       8240.6000   2.3168133e-15
       8241.9000   2.3259530e-15
       8243.2000   2.4321675e-15
       8244.5000   2.2924933e-15
       8245.8000   2.3174892e-15
       8247.1000   2.2755710e-15
       8248.4000   2.3518983e-15
       8249.7000   2.4870657e-15
       8251.0000   2.4907557e-15
       8252.3000   2.2627505e-15
       8253.6000   2.1227722e-15
       8254.9000   2.4554331e-15
       8256.2000   2.3208466e-15
       8257.5000   2.1028469e-15
       8258.8000   2.2668500e-15
       8260.1000   2.2579935e-15
       8261.4000   2.1825199e-15
       8262.7000   2.2620577e-15
       8264.0000   2.1797212e-15
       8265.3000   2.2980194e-15
       8266.6000   2.4142543e-15
       8267.9000   2.4921005e-15
       8269.2000   2.4105124e-15
       8270.5000   2.2512259e-15
       8271.8000   2.1022023e-15
       8273.1000   2.3143075e-15
       8274.4000   2.5641776e-15
       8275.7000   2.4688598e-15
       8277.0000   2.6593730e-15
       8278.3000   2.6383279e-15
       8279.6000   2.3473129e-15
       8280.9000   2.4796074e-15
       8282.2000   2.6877148e-15
       8283.5000   2.5961094e-15
       8284.8000   2.4935198e-15
       8286.1000   2.4483322e-15
       8287.4000   2.5015189e-15
       8288.7000   2.6530976e-15
       8290.0000   2.5708128e-15
       8291.3000   2.3452607e-15
       8292.6000   2.4076314e-15
       8293.9000   2.3993954e-15
       8295.2000   2.3177226e-15
       8296.5000   2.4752325e-15
       8297.8000   2.4940212e-15
       8299.1000   2.4761461e-15
       8300.4000   2.7173960e-15
       8301.7000   2.7624415e-15
       8303.0000   2.5741474e-15
       8304.3000   2.4422048e-15
       8305.6000   2.3974316e-15
       8306.9000   2.6739337e-15
       8308.2000   2.6454612e-15
       8309.5000   2.3728716e-15
       8310.8000   2.5099880e-15
       8312.1000   2.5375683e-15
       8313.4000   2.3860910e-15
       8314.7000   2.4593330e-15
       8316.0000   2.6081877e-15
       8317.3000   2.5993022e-15
       8318.6000   2.5728152e-15
       8319.9000   2.5942662e-15
       8321.2000   2.5594220e-15
       8322.5000   2.7153811e-15
       8323.8000   2.8111734e-15
       8325.1000   2.7555612e-15
       8326.4000   2.7523696e-15
       8327.7000   2.9752228e-15
       8329.0000   2.8671407e-15
       8330.3000   2.6211806e-15
       8331.6000   2.7612770e-15
       8332.9000   2.6073669e-15
       8334.2000   2.6037451e-15
       8335.5000   2.8244381e-15
       8336.8000   2.8172359e-15
       8338.1000   2.7981353e-15
       8339.4000   2.7316072e-15
       8340.7000   2.8184288e-15
       8342.0000   2.7773067e-15
       8343.3000   2.5218248e-15
       8344.6000   2.7031958e-15
       8345.9000   2.9843052e-15
       8347.2000   3.0079575e-15
       8348.5000   2.8030708e-15
       8349.8000   2.6618520e-15
       8351.1000   2.8226075e-15
       8352.4000   2.7305683e-15
       8353.7000   2.7705895e-15
       8355.0000   2.9364185e-15
       8356.3000   3.0203718e-15
       8357.6000   2.8945040e-15
       8358.9000   2.8593581e-15
       8360.2000   3.0678216e-15
       8361.5000   3.0395904e-15
       8362.8000   2.9804971e-15
       8364.1000   2.9814615e-15
       8365.4000   2.9141852e-15
       8366.7000   3.0112312e-15
       8368.0000   3.0481158e-15
       8369.3000   3.0130789e-15
       8370.6000   2.8894346e-15
       8371.9000   3.0156096e-15
       8373.2000   3.1475145e-15
       8374.5000   3.0298900e-15
       8375.8000   3.1058285e-15
       8377.1000   3.2349133e-15
       8378.4000   3.2741842e-15
       8379.7000   3.1961871e-15
       8381.0000   3.1370031e-15
       8382.3000   3.2162274e-15
       8383.6000   3.2103117e-15
       8384.9000   3.2345743e-15
       8386.2000   3.0366038e-15
       8387.5000   2.9533967e-15
       8388.8000   3.1223457e-15
       8390.1000   3.1223797e-15
       8391.4000   3.1723438e-15
       8392.7000   3.1599765e-15
       8394.0000   2.9749316e-15
       8395.3000   2.9613608e-15
       8396.6000   2.8949621e-15
       8397.9000   2.8764223e-15
       8399.2000   2.9312706e-15
       8400.5000   3.0953027e-15
       8401.8000   3.1051099e-15
       8403.1000   3.0050423e-15
       8404.4000   3.1615241e-15
       8405.7000   3.3796642e-15
       8407.0000   3.2507477e-15
       8408.3000   3.0222322e-15
       8409.6000   3.0889418e-15
       8410.9000   3.0660807e-15
       8412.2000   3.0791415e-15
       8413.5000   3.0489564e-15
       8414.8000   3.0598832e-15
       8416.1000   2.9380981e-15
       8417.4000   2.9810414e-15
       8418.7000   2.8506925e-15
       8420.0000   2.7617454e-15
       8421.3000   2.9701817e-15
       8422.6000   3.0137928e-15
       8423.9000   3.0351159e-15
       8425.2000   2.8730140e-15
       8426.5000   3.0104450e-15
       8427.8000   2.9958595e-15
       8429.1000   2.9437929e-15
       8430.4000   2.8835280e-15
       8431.7000   2.9487514e-15
       8433.0000   2.9879021e-15
       8434.3000   3.0288115e-15
       8435.6000   3.0576512e-15
       8436.9000   3.0286577e-15
       8438.2000   2.9262105e-15
       8439.5000   2.9588999e-15
       8440.8000   3.0040403e-15
       8442.1000   2.9793347e-15
       8443.4000   2.8907146e-15
       8444.7000   2.8145626e-15
       8446.0000   2.8279408e-15
       8447.3000   2.8762720e-15
       8448.6000   2.8941487e-15
       8449.9000   2.8762477e-15
       8451.2000   2.9952977e-15
       8452.5000   3.0452754e-15
       8453.8000   2.9812825e-15
       8455.1000   2.9947279e-15
       8456.4000   2.9474461e-15
       8457.7000   2.9343762e-15
       8459.0000   2.9209414e-15
       8460.3000   2.8332406e-15
       8461.6000   2.8476932e-15
       8462.9000   2.8573144e-15
       8464.2000   2.8747817e-15
       8465.5000   2.8815997e-15
       8466.8000   2.9192408e-15
       8468.1000   2.9680615e-15
       8469.4000   3.0598835e-15
       8470.7000   3.0617686e-15
       8472.0000   2.8874122e-15
       8473.3000   2.8733383e-15
       8474.6000   2.9209739e-15
       8475.9000   2.8682474e-15
       8477.2000   2.8596378e-15
       8478.5000   2.8548548e-15
       8479.8000   2.9835593e-15
       8481.1000   3.0369859e-15
       8482.4000   3.0668048e-15
       8483.7000   3.0209224e-15
       8485.0000   2.9798815e-15
       8486.3000   2.8695089e-15
       8487.6000   2.8468120e-15
       8488.9000   2.9468819e-15
       8490.2000   2.8759629e-15
       8491.5000   2.8778785e-15
       8492.8000   2.9354471e-15
       8494.1000   2.8813242e-15
       8495.4000   2.8616649e-15
       8496.7000   2.8575015e-15
       8498.0000   2.8357565e-15
       8499.3000   2.9479753e-15
       8500.6000   2.9486008e-15
       8501.9000   2.7971055e-15
       8503.2000   2.7612319e-15
       8504.5000   2.7952047e-15
       8505.8000   2.8123638e-15
       8507.1000   2.7720898e-15
       8508.4000   2.7286419e-15
       8509.7000   2.8356063e-15
       8511.0000   2.8486881e-15
       8512.3000   2.7083172e-15
       8513.6000   2.7962876e-15
       8514.9000   2.7650547e-15
       8516.2000   2.8125123e-15
       8517.5000   2.7830887e-15
       8518.8000   2.6683524e-15
       8520.1000   2.7894416e-15
       8521.4000   2.8068630e-15
       8522.7000   2.7858168e-15
       8524.0000   2.8906641e-15
       8525.3000   2.8458336e-15
       8526.6000   2.7345548e-15
       8527.9000   2.6345097e-15
       8529.2000   2.6878446e-15
       8530.5000   2.7747108e-15
       8531.8000   2.7756195e-15
       8533.1000   2.7616458e-15
       8534.4000   2.7602524e-15
       8535.7000   2.7324173e-15
       8537.0000   2.6546789e-15
       8538.3000   2.7305790e-15
       8539.6000   2.8046195e-15
       8540.9000   2.7852915e-15
       8542.2000   2.8182497e-15
       8543.5000   2.8989262e-15
       8544.8000   2.9780473e-15
       8546.1000   2.9273010e-15
       8547.4000   2.8713036e-15
       8548.7000   2.8141610e-15
       8550.0000   2.6117602e-15
       8551.3000   2.5895380e-15
       8552.6000   2.6915577e-15
       8553.9000   2.6283755e-15
       8555.2000   2.5767891e-15
       8556.5000   2.6621343e-15
       8557.8000   2.7644696e-15
       8559.1000   2.7838099e-15
       8560.4000   2.8060945e-15
       8561.7000   2.6986533e-15
       8563.0000   2.7353831e-15
       8564.3000   2.8084568e-15
       8565.6000   2.6331291e-15
       8566.9000   2.7053223e-15
       8568.2000   2.7017407e-15
       8569.5000   2.7106591e-15
       8570.8000   2.8285875e-15
       8572.1000   2.7325588e-15
       8573.4000   2.7656472e-15
       8574.7000   2.5925860e-15
       8576.0000   2.6112120e-15
       8577.3000   2.7483668e-15
       8578.6000   2.7055560e-15
       8579.9000   2.7012290e-15
       8581.2000   2.7428839e-15
       8582.5000   2.8806455e-15
       8583.8000   2.8776949e-15
       8585.1000   2.8179037e-15
       8586.4000   2.9057614e-15
       8587.7000   2.9679327e-15
       8589.0000   2.9794512e-15
       8590.3000   2.9432378e-15
       8591.6000   2.8222427e-15
       8592.9000   2.7149477e-15
       8594.2000   2.6489876e-15
       8595.5000   2.7596068e-15
       8596.8000   2.6660263e-15
       8598.1000   2.5544532e-15
       8599.4000   2.6549332e-15
       8600.7000   2.6220723e-15
       8602.0000   2.5994566e-15
       8603.3000   2.6558649e-15
       8604.6000   2.6309664e-15
       8605.9000   2.5429667e-15
       8607.2000   2.5857459e-15
       8608.5000   2.6223219e-15
       8609.8000   2.6009824e-15
       8611.1000   2.6120166e-15
       8612.4000   2.5284644e-15
       8613.7000   2.4776917e-15
       8615.0000   2.5633627e-15
       8616.3000   2.6159019e-15
       8617.6000   2.6076599e-15
       8618.9000   2.6265951e-15
       8620.2000   2.4631310e-15
       8621.5000   2.3210790e-15
       8622.8000   2.4037910e-15
       8624.1000   2.4671352e-15
       8625.4000   2.5106909e-15
       8626.7000   2.4867124e-15
       8628.0000   2.4329009e-15
       8629.3000   2.5103665e-15
       8630.6000   2.5252211e-15
       8631.9000   2.5114290e-15
       8633.2000   2.4973206e-15
       8634.5000   2.5413945e-15
       8635.8000   2.4525963e-15
       8637.1000   2.4123643e-15
       8638.4000   2.3873266e-15
       8639.7000   2.3506302e-15
       8641.0000   2.4052895e-15
       8642.3000   2.4450586e-15
       8643.6000   2.3775895e-15
       8644.9000   2.2906767e-15
       8646.2000   2.3852700e-15
       8647.5000   2.4314487e-15
       8648.8000   2.3815455e-15
       8650.1000   2.4136816e-15
       8651.4000   2.4256106e-15
       8652.7000   2.5386660e-15
       8654.0000   2.5269900e-15
       8655.3000   2.3800347e-15
       8656.6000   2.3213693e-15
       8657.9000   2.3219591e-15
       8659.2000   2.2365583e-15
       8660.5000   2.3530053e-15
       8661.8000   2.4259072e-15
       8663.1000   2.1987497e-15
       8664.4000   2.2210025e-15
       8665.7000   2.3008600e-15
       8667.0000   2.2866912e-15
       8668.3000   2.2675843e-15
       8669.6000   2.2696340e-15
       8670.9000   2.2227550e-15
       8672.2000   2.0682347e-15
       8673.5000   2.1132597e-15
       8674.8000   2.2214514e-15
       8676.1000   2.1540211e-15
       8677.4000   2.1810207e-15
       8678.7000   2.2728035e-15
       8680.0000   2.2587254e-15
       8681.3000   2.1648512e-15
       8682.6000   2.1614636e-15
       8683.9000   2.1383613e-15
       8685.2000   2.1393491e-15
       8686.5000   2.1594075e-15
       8687.8000   2.0844823e-15
       8689.1000   2.0769708e-15
       8690.4000   2.1970936e-15
       8691.7000   2.1535790e-15
       8693.0000   2.1096575e-15
       8694.3000   2.1726298e-15
       8695.6000   2.1916324e-15
       8696.9000   2.1443208e-15
       8698.2000   2.0370987e-15
       8699.5000   2.0504064e-15
       8700.8000   2.1661012e-15
       8702.1000   2.1812994e-15
       8703.4000   2.1336066e-15
       8704.7000   2.1660666e-15
       8706.0000   2.2352826e-15
       8707.3000   2.4206763e-15
       8708.6000   2.4457668e-15
       8709.9000   2.2527513e-15
       8711.2000   2.1178808e-15
       8712.5000   2.1110341e-15
       8713.8000   2.1185811e-15
       8715.1000   2.0490825e-15
       8716.4000   2.0430792e-15
       8717.7000   2.0431000e-15
       8719.0000   2.1843110e-15
       8720.3000   2.1362105e-15
       8721.6000   2.0675844e-15
       8722.9000   2.1121427e-15
       8724.2000   2.1271839e-15
       8725.5000   1.9662479e-15
       8726.8000   1.9439105e-15
       8728.1000   1.9856329e-15
       8729.4000   2.0541327e-15
       8730.7000   1.9767514e-15
       8732.0000   1.9808731e-15
       8733.3000   2.0103573e-15
       8734.6000   2.0210652e-15
       8735.9000   1.9805205e-15
       8737.2000   2.0143022e-15
       8738.5000   2.0383185e-15
       8739.8000   1.9515253e-15
       8741.1000   1.9106660e-15
       8742.4000   2.0117151e-15
       8743.7000   1.8989578e-15
       8745.0000   1.8328947e-15
       8746.3000   2.0704430e-15
       8747.6000   2.0082451e-15
       8748.9000   2.0586635e-15
       8750.2000   2.0557465e-15
       8751.5000   1.8669340e-15
       8752.8000   1.8186932e-15
       8754.1000   1.7774701e-15
       8755.4000   1.8544809e-15
       8756.7000   1.8059629e-15
       8758.0000   1.8786613e-15
       8759.3000   1.9481683e-15
       8760.6000   1.9910842e-15
       8761.9000   1.9435568e-15
       8763.2000   1.9623667e-15
       8764.5000   1.7533025e-15
       8765.8000   1.7878974e-15
       8767.1000   1.9727953e-15
       8768.4000   1.8600956e-15
       8769.7000   1.8176566e-15
       8771.0000   1.9339799e-15
       8772.3000   1.8730780e-15
       8773.6000   1.7587001e-15
       8774.9000   1.8566363e-15
       8776.2000   1.8196231e-15
       8777.5000   1.6794149e-15
       8778.8000   1.6897254e-15
       8780.1000   1.8297230e-15
       8781.4000   1.9481362e-15
       8782.7000   1.8262198e-15
       8784.0000   1.6735045e-15
       8785.3000   1.7578222e-15
       8786.6000   1.8203181e-15
       8787.9000   1.6737391e-15
       8789.2000   1.6734173e-15
       8790.5000   1.8303671e-15
       8791.8000   1.8079170e-15
       8793.1000   1.7418265e-15
       8794.4000   1.7217349e-15
       8795.7000   1.6885863e-15
       8797.0000   1.7954176e-15
       8798.3000   1.7641306e-15
       8799.6000   1.6659600e-15
       8800.9000   1.7295149e-15
       8802.2000   1.7167900e-15
       8803.5000   1.5668698e-15
       8804.8000   1.6026536e-15
       8806.1000   1.7168033e-15
       8807.4000   1.6135775e-15
       8808.7000   1.6202906e-15
       8810.0000   1.7196331e-15
       8811.3000   1.6507723e-15
       8812.6000   1.6678489e-15
       8813.9000   1.6815072e-15
       8815.2000   1.5083431e-15
       8816.5000   1.5272774e-15
       8817.8000   1.7343977e-15
       8819.1000   1.7367019e-15
       8820.4000   1.6393068e-15
       8821.7000   1.6856281e-15
       8823.0000   1.7257041e-15
       8824.3000   1.5931355e-15
       8825.6000   1.5492446e-15
       8826.9000   1.6194895e-15
       8828.2000   1.6461475e-15
       8829.5000   1.6577598e-15
       8830.8000   1.6458748e-15
       8832.1000   1.6670555e-15
       8833.4000   1.6423917e-15
       8834.7000   1.6148917e-15
       8836.0000   1.6540951e-15
       8837.3000   1.5637531e-15
       8838.6000   1.5523768e-15
       8839.9000   1.5897041e-15
       8841.2000   1.6662891e-15
       8842.5000   1.6354936e-15
       8843.8000   1.6222356e-15
       8845.1000   1.6265084e-15
       8846.4000   1.6102084e-15
       8847.7000   1.5037235e-15
       8849.0000   1.5735868e-15
       8850.3000   1.7027827e-15
       8851.6000   1.7494444e-15
       8852.9000   1.7596539e-15
       8854.2000   1.6815753e-15
       8855.5000   1.5633730e-15
       8856.8000   1.5684733e-15
       8858.1000   1.5578647e-15
       8859.4000   1.4515685e-15
       8860.7000   1.4640865e-15
       8862.0000   1.5187470e-15
       8863.3000   1.5176184e-15
       8864.6000   1.5431538e-15
       8865.9000   1.6043016e-15
       8867.2000   1.4958799e-15
       8868.5000   1.5280282e-15
       8869.8000   1.5858227e-15
       8871.1000   1.4586363e-15
       8872.4000   1.4541336e-15
       8873.7000   1.5506280e-15
       8875.0000   1.6612058e-15
       8876.3000   1.5754119e-15
       8877.6000   1.4048518e-15
       8878.9000   1.5508560e-15
       8880.2000   1.5692308e-15
       8881.5000   1.5005701e-15
       8882.8000   1.5975458e-15
       8884.1000   1.5658409e-15
       8885.4000   1.4764103e-15
       8886.7000   1.4347203e-15
       8888.0000   1.4919214e-15
       8889.3000   1.5155543e-15
       8890.6000   1.4548909e-15
       8891.9000   1.5555971e-15
       8893.2000   1.5917331e-15
       8894.5000   1.5710711e-15
       8895.8000   1.5124779e-15
       8897.1000   1.5236404e-15
       8898.4000   1.5507626e-15
       8899.7000   1.4663011e-15
       8901.0000   1.3753312e-15
       8902.3000   1.4266211e-15
       8903.6000   1.5550500e-15
       8904.9000   1.5673949e-15
       8906.2000   1.5384911e-15
       8907.5000   1.5244783e-15
       8908.8000   1.6614556e-15
       8910.1000   1.6814647e-15
       8911.4000   1.5745567e-15
       8912.7000   1.6167014e-15
       8914.0000   1.6771556e-15
       8915.3000   1.6292182e-15
       8916.6000   1.5830151e-15
       8917.9000   1.5460019e-15
       8919.2000   1.5175073e-15
       8920.5000   1.5870356e-15
       8921.8000   1.6097949e-15
       8923.1000   1.5980409e-15
       8924.4000   1.5792118e-15
       8925.7000   1.5952109e-15
       8927.0000   1.5878336e-15
       8928.3000   1.5995729e-15
       8929.6000   1.7131554e-15
       8930.9000   1.8016832e-15
       8932.2000   1.6747761e-15
       8933.5000   1.6180183e-15
       8934.8000   1.6670745e-15
       8936.1000   1.6758785e-15
       8937.4000   1.7618179e-15
       8938.7000   1.7337278e-15
       8940.0000   1.6517593e-15
       8941.3000   1.6263177e-15
       8942.6000   1.7286268e-15
       8943.9000   1.7616573e-15
       8945.2000   1.6531735e-15
       8946.5000   1.7942525e-15
       8947.8000   1.8714318e-15
       8949.1000   1.9626805e-15
       8950.4000   1.9343735e-15
       8951.7000   1.8620948e-15
       8953.0000   1.8718988e-15
       8954.3000   1.7483186e-15
       8955.6000   1.6284168e-15
       8956.9000   1.5485904e-15
       8958.2000   1.7207900e-15
       8959.5000   1.7899324e-15
       8960.8000   1.8190923e-15
       8962.1000   1.9249472e-15
       8963.4000   1.8784994e-15
       8964.7000   1.7524922e-15
       8966.0000   1.7286251e-15
       8967.3000   1.9214939e-15
       8968.6000   1.9498709e-15
       8969.9000   1.9565058e-15
       8971.2000   1.9190697e-15
       8972.5000   1.6832140e-15
       8973.8000   1.7539717e-15
       8975.1000   1.7900263e-15
       8976.4000   1.7446121e-15
       8977.7000   1.8249675e-15
       8979.0000   1.7760939e-15
       8980.3000   1.9492971e-15
       8981.6000   2.1216296e-15
       8982.9000   1.7295070e-15
       8984.2000   1.6848630e-15
       8985.5000   1.8275448e-15
       8986.8000   1.7437038e-15
       8988.1000   1.9799146e-15
       8989.4000   1.9636564e-15
       8990.7000   1.8905766e-15
       8992.0000   1.8934636e-15
       8993.3000   1.8025393e-15
       8994.6000   1.7447548e-15
       8995.9000   1.7595626e-15
       8997.2000   1.7780306e-15
       8998.5000   1.8670547e-15
       8999.8000   1.7849676e-15
       9001.1000   1.6725103e-15
       9002.4000   1.7425816e-15
       9003.7000   1.5779877e-15
       9005.0000   1.5910156e-15
       9006.3000   1.7485605e-15
       9007.6000   2.0377873e-15
       9008.9000   1.9725750e-15
       9010.2000   1.7427571e-15
       9011.5000   1.7542720e-15
       9012.8000   1.7959688e-15
       9014.1000   1.8177687e-15
       9015.4000   1.8105804e-15
       9016.7000   1.7922588e-15
       9018.0000   1.7521384e-15
       9019.3000   1.7078110e-15
       9020.6000   1.7036798e-15
       9021.9000   1.6561661e-15
       9023.2000   1.8421748e-15
       9024.5000   1.9128530e-15
       9025.8000   1.6318837e-15
       9027.1000   1.5788187e-15
       9028.4000   1.5673757e-15
       9029.7000   1.5364943e-15
       9031.0000   1.5958860e-15
       9032.3000   1.6006573e-15
       9033.6000   1.6430572e-15
       9034.9000   1.7124982e-15
       9036.2000   1.7946781e-15
       9037.5000   1.7765320e-15
       9038.8000   1.6890538e-15
       9040.1000   1.5328558e-15
       9041.4000   1.5402679e-15
       9042.7000   1.7576040e-15
       9044.0000   1.6614365e-15
       9045.3000   1.7343238e-15
       9046.6000   1.7543364e-15
       9047.9000   1.7923186e-15
       9049.2000   1.9017027e-15
       9050.5000   1.7926659e-15
       9051.8000   1.7474889e-15
       9053.1000   1.7423912e-15
       9054.4000   1.7159066e-15
       9055.7000   1.5674347e-15
       9057.0000   1.6589662e-15
       9058.3000   1.6104819e-15
       9059.6000   1.6172624e-15
       9060.9000   1.8978572e-15
       9062.2000   1.9481236e-15
       9063.5000   1.7512669e-15
       9064.8000   1.6144003e-15
       9066.1000   1.7637943e-15
       9067.4000   1.7721503e-15
       9068.7000   1.7758771e-15
       9070.0000   1.8480317e-15
       9071.3000   1.7520874e-15
       9072.6000   1.7572149e-15
       9073.9000   1.7382797e-15
       9075.2000   1.5281906e-15
       9076.5000   1.5670780e-15
       9077.8000   1.6189582e-15
       9079.1000   1.6844141e-15
       9080.4000   1.7621711e-15
       9081.7000   1.7496434e-15
       9083.0000   1.8568745e-15
       9084.3000   1.9260779e-15
       9085.6000   1.7744364e-15
       9086.9000   1.7223384e-15
       9088.2000   1.7028635e-15
       9089.5000   1.5569760e-15
       9090.8000   1.5076578e-15
       9092.1000   1.6423551e-15
       9093.4000   1.7438399e-15
       9094.7000   1.6946551e-15
       9096.0000   1.6911108e-15
       9097.3000   1.8099241e-15
       9098.6000   1.7003497e-15
       9099.9000   1.6479276e-15
       9101.2000   1.7401811e-15
       9102.5000   1.7121468e-15
       9103.8000   1.8437369e-15
       9105.1000   1.8099395e-15
       9106.4000   1.7289506e-15
       9107.7000   1.6616909e-15
       9109.0000   1.8363318e-15
       9110.3000   2.0245349e-15
       9111.6000   1.8706846e-15
       9112.9000   1.7912939e-15
       9114.2000   1.7697261e-15
       9115.5000   1.7253172e-15
       9116.8000   1.8503359e-15
       9118.1000   1.9060696e-15
       9119.4000   1.6867523e-15
       9120.7000   1.6883785e-15
       9122.0000   1.6565795e-15
       9123.3000   1.6494868e-15
       9124.6000   1.7462111e-15
       9125.9000   1.7699344e-15
       9127.2000   1.6713913e-15
       9128.5000   1.7642043e-15
       9129.8000   1.9104575e-15
       9131.1000   1.9048539e-15
       9132.4000   2.1030280e-15
       9133.7000   2.1762743e-15
       9135.0000   1.8299029e-15
       9136.3000   1.7113772e-15
       9137.6000   1.6506764e-15
       9138.9000   1.8817746e-15
       9140.2000   1.8238135e-15
       9141.5000   1.9776973e-15
       9142.8000   1.9424419e-15
       9144.1000   1.7143592e-15
       9145.4000   1.7026003e-15
       9146.7000   1.7921245e-15
       9148.0000   1.8451907e-15
       9149.3000   1.7954594e-15
