# wavelength(A)     flux(erg / s cm2 A)
       3292.9807   1.1866797e-15
       3295.2679   2.8555262e-15
       3297.5551   4.7672294e-15
       3299.8424   2.8210256e-16
       3302.1296  -6.9196172e-16
       3304.4168  -9.5667343e-16
       3306.7040   3.7506100e-15
       3308.9912   1.4074244e-15
       3311.2784   5.5441022e-16
       3313.5656   1.8726386e-15
       3315.8528   1.2994543e-15
       3318.1401  -7.2028057e-16
       3320.4273   2.2961028e-15
       3322.7145   8.8163699e-16
       3325.0017  -1.7277562e-17
       3327.2889   1.1281046e-16
       3329.5761   6.1057008e-17
       3331.8633   5.4126413e-16
       3334.1505  -1.6617204e-16
       3336.4378  -7.7772880e-16
       3338.7250  -4.8638978e-17
       3341.0122   5.3420518e-16
       3343.2994   8.9000645e-16
       3345.5866   5.3567246e-16
       3347.8738   1.2242454e-15
       3350.1610  -1.1042634e-15
       3352.4482  -7.7923184e-16
       3354.7355   8.5574553e-16
       3357.0227  -4.3851743e-16
       3359.3099   1.8519502e-15
       3361.5971   3.7502018e-16
       3363.8843   1.0964524e-15
       3366.1715   1.3913902e-15
       3368.4587   2.1790331e-15
       3370.7459  -7.5291095e-16
       3373.0332   2.8499117e-15
       3375.3204  -4.0043895e-16
       3377.6076   1.9871905e-15
       3379.8948   1.3333727e-15
       3382.1820   1.3882975e-15
       3384.4692  -2.3435914e-15
       3386.7564   4.9556818e-16
       3389.0436   2.1366511e-15
       3391.3309  -1.0338392e-16
       3393.6181   1.3165650e-15
       3395.9053   2.0306680e-16
       3398.1925   2.1202634e-15
       3400.4797   2.6360677e-15
       3402.7669   1.4444830e-18
       3405.0541   3.6966740e-16
       3407.3413   2.8338657e-16
       3409.6286   2.1478112e-15
       3411.9158  -8.4043988e-16
       3414.2030   7.3149253e-16
       3416.4902   1.6303355e-16
       3418.7774   1.7944390e-15
       3421.0646   1.5422992e-16
       3423.3518  -2.9358021e-16
       3425.6390   8.8046079e-16
       3427.9263   7.0053937e-16
       3430.2135   1.9568979e-15
       3432.5007   1.0630283e-15
       3434.7879  -5.0510325e-17
       3437.0751  -7.7153773e-16
       3439.3623   5.5992824e-16
       3441.6495  -5.9285484e-16
       3443.9367   7.1343234e-16
       3446.2240   3.0787086e-16
       3448.5112  -5.0924692e-16
       3450.7984   3.4844175e-15
       3453.0856   4.9818905e-16
       3455.3728   1.4495604e-16
       3457.6600   4.1063006e-16
       3459.9472   2.8466734e-16
       3462.2344  -1.3715277e-16
       3464.5217   2.3211945e-15
       3466.8089  -3.7481310e-16
       3469.0961   9.3637268e-16
       3471.3833   1.2155722e-15
       3473.6705  -2.4745975e-17
       3475.9577   8.7769312e-16
       3478.2449   2.1160838e-16
       3480.5321   1.0222536e-15
       3482.8194   1.8030204e-17
       3485.1066   1.2299556e-16
       3487.3938   1.8326770e-15
       3489.6810  -2.5516438e-16
       3491.9682  -4.2817421e-16
       3494.2554   1.4759755e-15
       3496.5426   4.4441860e-16
       3498.8298   1.2181485e-15
       3501.1171  -4.8841701e-16
       3503.4043   9.7078152e-16
       3505.6915  -2.3524188e-16
       3507.9787   1.7802273e-15
       3510.2659  -2.8513498e-16
       3512.5531  -1.7179788e-16
       3514.8403   4.4289911e-16
       3517.1275   7.6209070e-16
       3519.4148  -2.1522138e-16
       3521.7020   1.3112954e-15
       3523.9892   1.9344979e-15
       3526.2764   2.5279481e-16
       3528.5636   4.6278269e-16
       3530.8508  -3.1059195e-16
       3533.1380   3.9962131e-16
       3535.4252  -5.1680934e-16
       3537.7125   2.0657555e-15
       3539.9997  -1.0521435e-15
       3542.2869  -8.5136424e-16
       3544.5741  -6.7666628e-17
       3546.8613   9.7317584e-16
       3549.1485  -2.6563795e-16
       3551.4357  -7.9144678e-16
       3553.7230   1.2108176e-15
       3556.0102   3.8360590e-16
       3558.2974  -1.4074987e-16
       3560.5846   5.1822513e-16
       3562.8718   1.2701110e-15
       3565.1590   1.6341869e-15
       3567.4462   2.3502539e-16
       3569.7334   1.5016304e-15
       3572.0207   1.5878855e-15
       3574.3079   4.7147156e-16
       3576.5951   1.3276808e-15
       3578.8823   1.7245297e-15
       3581.1695   3.1857857e-16
       3583.4567   8.0764387e-17
       3585.7439   8.3714145e-16
       3588.0311   1.2424817e-15
       3590.3184   1.1196378e-15
       3592.6056  -1.2091233e-17
       3594.8928   1.7593072e-15
       3597.1800   6.9612525e-16
       3599.4672   4.1172408e-16
       3601.7544   8.3535856e-16
       3604.0416   4.1650482e-16
       3606.3288   1.5572473e-16
       3608.6161   1.1239875e-15
       3610.9033   9.9256932e-16
       3613.1905   2.7680696e-16
       3615.4777   1.5730995e-15
       3617.7649   4.9205342e-16
       3620.0521   4.6875427e-16
       3622.3393   6.5342336e-16
       3624.6265   1.1388747e-15
       3626.9138   2.5789638e-16
       3629.2010  -2.1861275e-16
       3631.4882   7.7009037e-16
       3633.7754   1.9945055e-15
       3636.0626   1.1336550e-15
       3638.3498  -6.4474502e-17
       3640.6370   4.4560754e-16
       3642.9242   9.5187133e-16
       3645.2115   1.0512702e-15
       3647.4987   5.3412450e-16
       3649.7859   1.6124774e-16
       3652.0731   4.7352852e-16
       3654.3603  -5.9250008e-17
       3656.6475   2.1409320e-16
       3658.9347   1.0492857e-15
       3661.2219   4.3944882e-16
       3663.5092   7.9191188e-16
       3665.7964   4.0914071e-16
       3668.0836  -3.6999962e-16
       3670.3708   1.0985809e-15
       3672.6580   9.0715985e-16
       3674.9452  -1.0417610e-16
       3677.2324   3.7280913e-16
       3679.5196   1.4398455e-16
       3681.8069   1.4834092e-15
       3684.0941   5.8722505e-16
       3686.3813   8.8799892e-16
       3688.6685   7.9378257e-16
       3690.9557   7.7626927e-16
       3693.2429   1.0970424e-15
       3695.5301   1.4271857e-15
       3697.8173   6.2043673e-16
       3700.1046  -6.0794898e-16
       3702.3918   7.2490873e-16
       3704.6790   6.4880707e-16
       3706.9662   1.3460776e-15
       3709.2534   1.0302022e-15
       3711.5406   6.9520011e-16
       3713.8278   4.6252024e-16
       3716.1150   8.8308213e-16
       3718.4023   3.8924843e-16
       3720.6895   2.6778478e-16
       3722.9767   4.3612634e-18
       3725.2639  -2.6038293e-16
       3727.5511   2.2816941e-16
       3729.8383   3.7885538e-16
       3732.1255   7.3394452e-16
       3734.4127   7.5445196e-16
       3736.7000   6.9016981e-16
       3738.9872   1.4136305e-15
       3741.2744   6.5077735e-16
       3743.5616  -3.9645236e-16
       3745.8488  -5.6180502e-16
       3748.1360  -4.9506757e-18
       3750.4232   9.9965817e-16
       3752.7104   4.3349298e-16
       3754.9977   6.0835001e-16
       3757.2849   7.2302483e-16
       3759.5721   5.1922407e-16
       3761.8593   5.3784768e-16
       3764.1465   3.9018456e-16
       3766.4337   3.9259510e-16
       3768.7209   3.3656678e-17
       3771.0081   2.2048384e-16
       3773.2954  -4.1672693e-16
       3775.5826  -5.0250002e-16
       3777.8698   2.8114380e-16
       3780.1570   9.7672976e-16
       3782.4442  -4.0425318e-17
       3784.7314   5.9541796e-16
       3787.0186   3.6723289e-16
       3789.3058   9.9945014e-16
       3791.5931   3.8384866e-16
       3793.8803   6.5391251e-16
       3796.1675   4.2661438e-16
       3798.4547   9.9888854e-16
       3800.7419   4.2339632e-16
       3803.0291   7.3092381e-16
       3805.3163   1.7155813e-16
       3807.6036   6.8185462e-16
       3809.8908   5.5857833e-16
       3812.1780   6.9077105e-16
       3814.4652   1.4821373e-16
       3816.7524   4.8957580e-16
       3819.0396   6.4901391e-16
       3821.3268   7.1740113e-16
       3823.6140   5.3770428e-16
       3825.9013   1.5844803e-15
       3828.1885   1.0943831e-15
       3830.4757   8.4055615e-16
       3832.7629   7.2427918e-17
       3835.0501   1.1645186e-15
       3837.3373   1.0968929e-15
       3839.6245   2.7664877e-16
       3841.9117   1.7364571e-16
       3844.1990   1.0834920e-15
       3846.4862   1.0065746e-15
       3848.7734   6.9703750e-16
       3851.0606   1.3431122e-15
       3853.3478   1.6153850e-16
       3855.6350   1.5164394e-16
       3857.9222   7.1349388e-16
       3860.2094   1.4179453e-15
       3862.4967   5.8713844e-16
       3864.7839   7.6857452e-16
       3867.0711   1.2404623e-15
       3869.3583   5.5458415e-16
       3871.6455   2.4004422e-16
       3873.9327   1.8778022e-15
       3876.2199   4.4167901e-16
       3878.5071   5.2920517e-16
       3880.7944   1.2860913e-15
       3883.0816   6.7712339e-16
       3885.3688   1.1806572e-15
       3887.6560   1.6868517e-15
       3889.9432   1.0645075e-15
       3892.2304   1.0344752e-15
       3894.5176   8.3638527e-16
       3896.8048   1.1225890e-15
       3899.0921   8.2538339e-16
       3901.3793   1.7763411e-15
       3903.6665   1.0882087e-15
       3905.9537   8.6180214e-16
       3908.2409   2.1405808e-15
       3910.5281   1.0872698e-15
       3912.8153   1.7293461e-15
       3915.1025   2.0284817e-15
       3917.3898   6.4504473e-16
       3919.6770   8.0232288e-16
       3921.9642   1.5718229e-15
       3924.2514   1.2072067e-15
       3926.5386   1.3091107e-15
       3928.8258  -5.5439780e-17
       3931.1130   2.1560897e-16
       3933.4002   1.0942352e-15
       3935.6875   9.1477471e-16
       3937.9747   1.4637737e-15
       3940.2619   1.7107792e-15
       3942.5491   1.4132603e-15
       3944.8363   1.9280268e-15
       3947.1235   1.4502438e-15
       3949.4107   1.1525810e-15
       3951.6979   1.0119968e-15
       3953.9852   1.0967514e-15
       3956.2724   1.0403688e-15
       3958.5596   8.1735089e-16
       3960.8468   1.8054938e-15
       3963.1340   1.7733449e-15
       3965.4212   1.1508060e-15
       3967.7084   9.1045670e-16
       3969.9956   1.1062567e-15
       3972.2829   3.2273617e-16
       3974.5701   1.0683580e-15
       3976.8573   1.2487297e-15
       3979.1445   1.3627303e-15
       3981.4317   1.4995984e-15
       3983.7189   9.7539378e-16
       3986.0061   1.0515178e-15
       3988.2933   1.4326791e-15
       3990.5806   1.1793512e-15
       3992.8678   8.6678537e-16
       3995.1550   1.0190778e-15
       3997.4422   1.0739796e-15
       3999.7294   1.7616857e-15
       4002.0166   1.6695591e-15
       4004.3038   1.1902281e-15
       4006.5910   7.4258102e-16
       4008.8783   2.0276021e-15
       4011.1655   1.3365383e-15
       4013.4527   1.4984016e-15
       4015.7399   1.1565162e-15
       4018.0271   1.1688319e-15
       4020.3143   1.5840816e-15
       4022.6015   1.5843213e-15
       4024.8887   5.5441140e-16
       4027.1760   1.1612289e-15
       4029.4632   1.2815479e-15
       4031.7504   1.7759187e-15
       4034.0376   1.1086162e-15
       4036.3248   9.8601123e-16
       4038.6120   1.1257190e-15
       4040.8992   1.7115789e-15
       4043.1864   9.8438654e-16
       4045.4737   1.2481286e-15
       4047.7609   1.4018716e-15
       4050.0481   1.2256906e-15
       4052.3353   2.3799738e-16
       4054.6225   7.0174405e-16
       4056.9097   1.6995107e-15
       4059.1969   2.0103862e-15
       4061.4841   5.1022546e-16
       4063.7714   1.1998236e-15
       4066.0586   1.3910865e-15
       4068.3458   1.5744395e-15
       4070.6330   6.7437154e-16
       4072.9202   1.3651697e-15
       4075.2074   1.7584924e-15
       4077.4946   1.5091670e-15
       4079.7819   3.0922425e-16
       4082.0691   1.0413473e-15
       4084.3563   1.4967659e-15
       4086.6435   1.0995000e-15
       4088.9307   1.1483104e-15
       4091.2179   1.2832145e-15
       4093.5051   1.0713021e-15
       4095.7923   7.5756015e-16
       4098.0796   8.1843455e-16
       4100.3668   8.5532314e-16
       4102.6540   8.5816754e-16
       4104.9412   1.4630895e-15
       4107.2284   1.4772379e-15
       4109.5156   7.4094968e-16
       4111.8028   8.9961223e-16
       4114.0900   7.8418755e-16
       4116.3773   7.6910575e-16
       4118.6645   8.5205002e-16
       4120.9517   1.2624566e-15
       4123.2389   1.3920175e-15
       4125.5261   6.9236853e-16
       4127.8133   1.1780619e-15
       4130.1005   2.0268736e-15
       4132.3877   8.4906008e-16
       4134.6750   8.9183205e-16
       4136.9622   5.7097314e-16
       4139.2494   1.6181448e-15
       4141.5366   1.0025437e-15
       4143.8238   9.9970089e-16
       4146.1110   1.1679887e-15
       4148.3982   1.3671899e-15
       4150.6854   1.1316862e-15
       4152.9727   8.3531980e-16
       4155.2599   1.2500720e-15
       4157.5471   1.0322928e-15
       4159.8343   8.9688252e-16
       4162.1215   6.0214375e-16
       4164.4087   4.1982136e-16
       4166.6959   8.4734047e-16
       4168.9831   8.8011908e-16
       4171.2704   6.2854389e-16
       4173.5576   7.7907965e-16
       4175.8448   1.1840537e-15
       4178.1320   1.6800065e-15
       4180.4192   1.0906346e-15
       4182.7064   1.2838655e-15
       4184.9936   1.3379921e-15
       4187.2808   1.1655603e-15
       4189.5681   4.0783201e-16
       4191.8553   1.3149071e-15
       4194.1425   1.1775604e-15
       4196.4297   1.5964614e-15
       4198.7169   1.6516408e-15
       4201.0041   1.0541170e-15
       4203.2913   1.2266129e-15
       4205.5785   1.1760243e-15
       4207.8658   1.0319155e-15
       4210.1530   7.0797681e-16
       4212.4402   1.1997999e-15
       4214.7274   1.2309182e-15
       4217.0146   6.3150148e-16
       4219.3018   1.2150438e-15
       4221.5890   1.6524405e-15
       4223.8762   7.2814617e-16
       4226.1635   8.7821438e-16
       4228.4507   8.2619890e-16
       4230.7379   1.4767799e-15
       4233.0251   8.3103976e-16
       4235.3123   9.6964170e-16
       4237.5995   1.5019350e-15
       4239.8867   9.8049329e-16
       4242.1739   1.3866783e-15
       4244.4612   9.2024440e-16
       4246.7484   6.9901395e-16
       4249.0356   1.5301005e-15
       4251.3228   1.2134737e-15
       4253.6100   7.1086582e-16
       4255.8972   8.8627219e-16
       4258.1844   8.4589850e-17
       4260.4716   2.9424314e-16
       4262.7589   9.0255866e-16
       4265.0461   1.0896783e-15
       4267.3333   1.2036908e-15
       4269.6205   1.0617050e-15
       4271.9077   4.8236902e-16
       4274.1949   8.0523847e-16
       4276.4821   1.2679555e-15
       4278.7693   1.4926693e-15
       4281.0566   1.3250634e-15
       4283.3438   1.4819862e-15
       4285.6310   1.2002634e-15
       4287.9182   1.2381550e-15
       4290.2054   1.4369109e-15
       4292.4926   1.3747644e-15
       4294.7798   6.2111943e-16
       4297.0670   9.8367623e-16
       4299.3543   1.2778983e-15
       4301.6415   1.0943602e-15
       4303.9287   1.7434557e-15
       4306.2159   1.1798575e-15
       4308.5031   1.1461091e-15
       4310.7903   9.0134212e-16
       4313.0775   1.1998450e-15
       4315.3647   5.6920449e-16
       4317.6520   5.5880076e-16
       4319.9392   4.9101477e-16
       4322.2264   6.5833944e-16
       4324.5136   1.1596793e-15
       4326.8008   1.5257058e-15
       4329.0880   1.1219135e-15
       4331.3752   1.1890598e-15
       4333.6625   1.3039012e-15
       4335.9497   1.2446316e-15
       4338.2369   6.5161587e-16
       4340.5241   1.0957705e-15
       4342.8113   8.9207805e-16
       4345.0985   1.2681074e-15
       4347.3857   1.2498078e-15
       4349.6729   1.1048274e-15
       4351.9602   6.8375418e-16
       4354.2474   7.3721606e-16
       4356.5346   6.2992077e-16
       4358.8218   1.1944164e-15
       4361.1090   1.4788990e-15
       4363.3962   8.4798117e-16
       4365.6834   8.7436226e-16
       4367.9706   1.0470717e-15
       4370.2579   1.0198743e-15
       4372.5451   1.2879865e-15
       4374.8323   6.6435508e-16
       4377.1195   1.1539866e-15
       4379.4067   1.3195850e-15
       4381.6939   1.3905953e-15
       4383.9811   1.0169832e-15
       4386.2683   1.6239182e-15
       4388.5556   1.0360223e-15
       4390.8428   5.5133809e-16
       4393.1300   7.4305601e-16
       4395.4172   9.9190489e-16
       4397.7044   3.5796155e-16
       4399.9916   1.0285594e-15
       4402.2788   8.4947773e-16
       4404.5660   9.0960164e-16
       4406.8533   1.0920711e-15
       4409.1405   9.7593640e-16
       4411.4277   1.5619711e-15
       4413.7149   8.9815048e-16
       4416.0021   8.2366774e-16
       4418.2893   9.7418831e-16
       4420.5765   1.2416456e-15
       4422.8637   1.4817363e-15
       4425.1510   1.2841257e-15
       4427.4382   1.5937958e-15
       4429.7254   1.0794050e-15
       4432.0126   8.2869131e-16
       4434.2998   7.2516359e-16
       4436.5870   7.9750101e-16
       4438.8742   8.5406072e-16
       4441.1614   1.0780326e-15
       4443.4487   1.5920674e-15
       4445.7359   8.3782566e-16
       4448.0231   1.4216567e-15
       4450.3103   1.2911418e-15
       4452.5975   1.1818223e-15
       4454.8847   1.1081005e-15
       4457.1719   1.1171969e-15
       4459.4591   1.5703350e-15
       4461.7464   1.7638941e-15
       4464.0336   1.4339083e-15
       4466.3208   2.1280768e-15
       4468.6080   1.0200507e-15
       4470.8952   1.6381086e-15
       4473.1824   1.4316389e-15
       4475.4696   1.1542547e-15
       4477.7568   1.4233992e-15
       4480.0441   1.0724340e-15
       4482.3313   1.2373300e-15
       4484.6185   9.0475999e-16
       4486.9057   1.3898344e-15
       4489.1929   1.7725776e-15
       4491.4801   1.2411766e-15
       4493.7673   2.2487937e-15
       4496.0545   1.7206286e-15
       4498.3418   1.6625272e-15
       4500.6290   2.0097084e-15
       4502.9162   1.3850125e-15
       4505.2034   2.1697778e-15
       4507.4906   2.1773713e-15
       4509.7778   1.4701040e-15
       4512.0650   1.6055878e-15
       4514.3522   1.8054503e-15
       4516.6395   1.6460849e-15
       4518.9267   2.0507172e-15
       4521.2139   1.4658864e-15
       4523.5011   2.2792001e-15
       4525.7883   2.1900311e-15
       4528.0755   1.8556157e-15
       4530.3627   1.5854453e-15
       4532.6499   1.0260258e-15
       4534.9372   2.0561735e-15
       4537.2244   2.4555955e-15
       4539.5116   1.2203095e-15
       4541.7988   2.2791685e-15
       4544.0860   1.6137706e-15
       4546.3732   1.5297264e-15
       4548.6604   1.7380825e-15
       4550.9476   1.8358204e-15
       4553.2349   1.1765938e-15
       4555.5221   2.0791359e-15
       4557.8093   2.1358886e-15
       4560.0965   2.5367321e-15
       4562.3837   1.6371784e-15
       4564.6709   2.0211706e-15
       4566.9581   1.8900823e-15
       4569.2453   2.2224363e-15
       4571.5326   2.3645020e-15
       4573.8198   2.2491575e-15
       4576.1070   1.9920630e-15
       4578.3942   2.1109471e-15
       4580.6814   2.1665015e-15
       4582.9686   1.9498858e-15
       4585.2558   2.0120892e-15
       4587.5431   2.4245318e-15
       4589.8303   2.6465681e-15
       4592.1175   2.5518605e-15
       4594.4047   3.1421903e-15
       4596.6919   2.6755776e-15
       4598.9791   1.5367702e-15
       4601.2663   1.9908124e-15
       4603.5535   2.2217656e-15
       4605.8408   2.0985223e-15
       4608.1280   2.0496794e-15
       4610.4152   1.7873406e-15
       4612.7024   1.8805516e-15
       4614.9896   1.5978899e-15
       4617.2768   1.6526715e-15
       4619.5640   2.1603966e-15
       4621.8512   1.6472493e-15
       4624.1385   2.1757909e-15
       4626.4257   1.4682760e-15
       4628.7129   1.8534587e-15
       4631.0001   1.6900015e-15
       4633.2873   1.4881892e-15
       4635.5745   1.9074516e-15
       4637.8617   2.0551215e-15
       4640.1489   1.8392216e-15
       4642.4362   1.6187776e-15
       4644.7234   1.6395703e-15
       4647.0106   1.7667132e-15
       4649.2978   1.7194160e-15
       4651.5850   1.6729232e-15
       4653.8722   1.7060554e-15
       4656.1594   2.0999468e-15
       4658.4466   1.5848718e-15
       4660.7339   1.5922454e-15
       4663.0211   1.7484580e-15
       4665.3083   1.8040186e-15
       4667.5955   1.3205263e-15
       4669.8827   1.3079606e-15
       4672.1699   1.3460001e-15
       4674.4571   1.6384519e-15
       4676.7443   1.3227434e-15
       4679.0316   1.4293957e-15
       4681.3188   1.3894911e-15
       4683.6060   1.9525072e-15
       4685.8932   1.8209229e-15
       4688.1804   1.1836677e-15
       4690.4676   1.0269821e-15
       4692.7548   1.4872764e-15
       4695.0420   1.5537337e-15
       4697.3293   1.3070866e-15
       4699.6165   1.4518171e-15
       4701.9037   1.3058787e-15
       4704.1909   2.2897677e-15
       4706.4781   2.0503360e-15
       4708.7653   1.3555821e-15
       4711.0525   1.8202679e-15
       4713.3397   1.2291828e-15
       4715.6270   1.1627832e-15
       4717.9142   1.6119767e-15
       4720.2014   1.6388830e-15
       4722.4886   1.4835326e-15
       4724.7758   2.0270405e-15
       4727.0630   1.9727351e-15
       4729.3502   1.8460779e-15
       4731.6374   1.7438852e-15
       4733.9247   1.5620122e-15
       4736.2119   1.4674281e-15
       4738.4991   2.0874255e-15
       4740.7863   1.3266968e-15
       4743.0735   1.6097437e-15
       4745.3607   1.2041456e-15
       4747.6479   1.4821428e-15
       4749.9351   9.0588478e-16
       4752.2224   2.0295725e-15
       4754.5096   1.8620085e-15
       4756.7968   1.7985173e-15
       4759.0840   1.5974161e-15
       4761.3712   1.6473157e-15
       4763.6584   1.5872131e-15
       4765.9456   1.1449717e-15
       4768.2328   2.0605508e-15
       4770.5201   1.4702392e-15
       4772.8073   9.6030249e-16
       4775.0945   2.0466832e-15
       4777.3817   1.6473782e-15
       4779.6689   1.4595411e-15
       4781.9561   1.1793362e-15
       4784.2433   1.4493816e-15
       4786.5305   1.6105576e-15
       4788.8178   1.2651847e-15
       4791.1050   1.2188327e-15
       4793.3922   1.7517319e-15
       4795.6794   1.4975039e-15
       4797.9666   1.5557879e-15
       4800.2538   1.7254742e-15
       4802.5410   1.2365445e-15
       4804.8282   1.1223264e-15
       4807.1155   1.5649057e-15
       4809.4027   1.1956701e-15
       4811.6899   1.1516737e-15
       4813.9771   1.5830067e-15
       4816.2643   1.0821821e-15
       4818.5515   1.4085761e-15
       4820.8387   1.7053767e-15
       4823.1259   2.0483197e-15
       4825.4132   1.9835559e-15
       4827.7004   1.4738896e-15
       4829.9876   8.4101572e-16
       4832.2748   1.7992688e-15
       4834.5620   1.3096723e-15
       4836.8492   1.7833145e-15
       4839.1364   1.4366459e-15
       4841.4237   1.5266423e-15
       4843.7109   1.7258681e-15
       4845.9981   2.5916900e-15
       4848.2853   1.6805104e-15
       4850.5725   1.4161783e-15
       4852.8597   1.5079813e-15
       4855.1469   9.0329033e-16
       4857.4341   1.3180418e-15
       4859.7214   2.0499832e-15
       4862.0086   1.8031826e-15
       4864.2958   1.9984415e-15
       4866.5830   2.2276869e-15
       4868.8702   1.6234776e-15
       4871.1574   1.6183592e-15
       4873.4446   1.4705200e-15
       4875.7318   1.7966197e-15
       4878.0191   2.0473563e-15
       4880.3063   2.0280657e-15
       4882.5935   2.1878463e-15
       4884.8807   2.3332302e-15
       4887.1679   2.1725850e-15
       4889.4551   1.4136969e-15
       4891.7423   2.0097622e-15
       4894.0295   2.0889347e-15
       4896.3168   1.9684298e-15
       4898.6040   1.1130489e-15
       4900.8912   1.6582179e-15
       4903.1784   1.8830298e-15
       4905.4656   1.9067279e-15
       4907.7528   1.7038936e-15
       4910.0400   1.5634131e-15
       4912.3272   1.9422670e-15
       4914.6145   1.3218717e-15
       4916.9017   1.3428361e-15
       4919.1889   1.7861621e-15
       4921.4761   1.6216742e-15
       4923.7633   1.3672983e-15
       4926.0505   2.1584619e-15
       4928.3377   1.5646533e-15
       4930.6249   1.7950322e-15
       4932.9122   2.2349110e-15
       4935.1994   1.9702293e-15
       4937.4866   1.3762618e-15
       4939.7738   1.3845355e-15
       4942.0610   1.3017600e-15
       4944.3482   1.2941570e-15
       4946.6354   1.4006060e-15
       4948.9226   1.6014660e-15
       4951.2099   1.4298869e-15
       4953.4971   1.4677690e-15
       4955.7843   1.3902124e-15
       4958.0715   1.2725361e-15
       4960.3587   1.5191350e-15
       4962.6459   1.3102798e-15
       4964.9331   1.3411410e-15
       4967.2203   1.3604641e-15
       4969.5076   1.3074623e-15
       4971.7948   1.6178917e-15
       4974.0820   1.6163445e-15
       4976.3692   1.6931417e-15
       4978.6564   1.8269566e-15
       4980.9436   1.4518226e-15
       4983.2308   1.2395851e-15
       4985.5180   1.2163347e-15
       4987.8053   1.6901525e-15
       4990.0925   1.9845976e-15
       4992.3797   1.6608479e-15
       4994.6669   1.4693019e-15
       4996.9541   1.5464234e-15
       4999.2413   1.7578889e-15
       5001.5285   1.9319944e-15
       5003.8157   1.4986334e-15
       5006.1030   1.4624939e-15
       5008.3902   1.4758885e-15
       5010.6774   1.0454351e-15
       5012.9646   1.3120136e-15
       5015.2518   1.6543452e-15
       5017.5390   1.8608726e-15
       5019.8262   1.9248937e-15
       5022.1134   1.9105230e-15
       5024.4007   1.9570451e-15
       5026.6879   1.9384054e-15
       5028.9751   1.6903107e-15
       5031.2623   1.4438447e-15
       5033.5495   1.4629463e-15
       5035.8367   1.6298768e-15
       5038.1239   1.7724851e-15
       5040.4111   1.8090897e-15
       5042.6984   1.7083722e-15
       5044.9856   1.5997938e-15
       5047.2728   1.5942593e-15
       5049.5600   1.6793895e-15
       5051.8472   1.8118241e-15
       5054.1344   1.8936599e-15
       5056.4216   1.8779493e-15
       5058.7088   1.8274691e-15
       5060.9961   1.7983291e-15
       5063.2833   1.8291302e-15
       5065.5705   1.9149185e-15
       5067.8577   2.0117293e-15
       5070.1449   2.0039887e-15
       5072.4321   1.6856273e-15
       5074.7193   1.2543378e-15
       5077.0065   1.2267046e-15
       5079.2938   1.5500556e-15
       5081.5810   1.8178238e-15
       5083.8682   1.9332727e-15
       5086.1554   1.9456295e-15
       5088.4426   1.9115054e-15
       5090.7298   1.9055944e-15
       5093.0170   1.8823994e-15
       5095.3042   1.7694682e-15
       5097.5915   1.7348521e-15
       5099.8787   1.9422109e-15
       5102.1659   2.0965305e-15
       5104.4531   1.9167837e-15
       5106.7403   1.6317902e-15
       5109.0275   1.4899301e-15
       5111.3147   1.5442822e-15
       5113.6020   1.7610742e-15
       5115.8892   1.8673532e-15
       5118.1764   1.7249719e-15
       5120.4636   1.6031326e-15
       5122.7508   1.6592003e-15
       5125.0380   1.7960004e-15
       5127.3252   1.9151369e-15
       5129.6124   1.9017415e-15
       5131.8997   1.7815846e-15
       5134.1869   1.7696161e-15
       5136.4741   1.9244199e-15
       5138.7613   2.1635013e-15
       5141.0485   2.3045031e-15
       5143.3357   2.0668629e-15
       5145.6229   1.6509440e-15
       5147.9101   1.5710097e-15
       5150.1974   1.7253698e-15
       5152.4846   1.7095413e-15
       5154.7718   1.6140641e-15
       5157.0590   1.6939501e-15
       5159.3462   1.9128723e-15
       5161.6334   2.1524203e-15
       5163.9206   2.2247270e-15
       5166.2078   1.9806150e-15
       5168.4951   1.7876040e-15
       5170.7823   1.9848262e-15
       5173.0695   2.0815002e-15
       5175.3567   1.6925247e-15
       5177.6439   1.4276175e-15
       5179.9311   1.7095017e-15
       5182.2183   2.0110443e-15
       5184.5055   1.9905609e-15
       5186.7928   1.9676997e-15
       5189.0800   2.0915402e-15
       5191.3672   2.1106402e-15
       5193.6544   1.9690317e-15
       5195.9416   1.9242641e-15
       5198.2288   2.0563119e-15
       5200.5160   2.2291929e-15
       5202.8032   2.3305567e-15
       5205.0905   2.2498726e-15
       5207.3777   2.0887433e-15
       5209.6649   2.1414382e-15
       5211.9521   2.3262189e-15
       5214.2393   2.3142971e-15
       5216.5265   2.1758083e-15
       5218.8137   2.1762109e-15
       5221.1009   2.2674183e-15
       5223.3882   2.2882190e-15
       5225.6754   2.2834991e-15
       5227.9626   2.3441870e-15
       5230.2498   2.4530161e-15
       5232.5370   2.5647893e-15
       5234.8242   2.5279268e-15
       5237.1114   2.2440849e-15
       5239.3986   2.0658821e-15
       5241.6859   2.2710450e-15
       5243.9731   2.4993017e-15
       5246.2603   2.4688082e-15
       5248.5475   2.4256906e-15
       5250.8347   2.5176566e-15
       5253.1219   2.5491443e-15
       5255.4091   2.4034812e-15
       5257.6963   2.1026212e-15
       5259.9836   1.7989492e-15
       5262.2708   1.8949128e-15
       5264.5580   2.3744938e-15
       5266.8452   2.6465333e-15
       5269.1324   2.5301439e-15
       5271.4196   2.2740310e-15
       5273.7068   2.0679663e-15
       5275.9940   2.0840392e-15
       5278.2813   2.2157082e-15
       5280.5685   2.1497594e-15
       5282.8557   1.9971593e-15
       5285.1429   2.0783758e-15
       5287.4301   2.3381177e-15
       5289.7173   2.5739901e-15
       5292.0045   2.6619441e-15
       5294.2917   2.5248111e-15
       5296.5790   2.2771182e-15
       5298.8662   2.0833859e-15
       5301.1534   2.0733110e-15
       5303.4406   2.3077335e-15
       5305.7278   2.5119512e-15
       5308.0150   2.4478897e-15
       5310.3022   2.2884112e-15
       5312.5894   2.2130821e-15
       5314.8767   2.2686048e-15
       5317.1639   2.4338394e-15
       5319.4511   2.5068224e-15
       5321.7383   2.3990303e-15
       5324.0255   2.2992738e-15
       5326.3127   2.3106585e-15
       5328.5999   2.3905422e-15
       5330.8871   2.4474689e-15
       5333.1744   2.2974617e-15
       5335.4616   2.0026393e-15
       5337.7488   1.9180604e-15
       5340.0360   2.0299545e-15
       5342.3232   1.9906368e-15
       5344.6104   1.8854368e-15
       5346.8976   2.0866835e-15
       5349.1848   2.4411370e-15
       5351.4721   2.5336694e-15
       5353.7593   2.4040301e-15
       5356.0465   2.2783047e-15
       5358.3337   2.2204240e-15
       5360.6209   2.2440556e-15
       5362.9081   2.3059704e-15
       5365.1953   2.3468052e-15
       5367.4826   2.4356887e-15
       5369.7698   2.6306565e-15
       5372.0570   2.7667621e-15
       5374.3442   2.7013473e-15
       5376.6314   2.5094959e-15
       5378.9186   2.3031173e-15
       5381.2058   2.2564900e-15
       5383.4930   2.4122928e-15
       5385.7803   2.3867430e-15
       5388.0675   2.0562099e-15
       5390.3547   1.9561346e-15
       5392.6419   2.2639506e-15
       5394.9291   2.4900850e-15
       5397.2163   2.4496528e-15
       5399.5035   2.3849396e-15
       5401.7907   2.3879406e-15
       5404.0780   2.4160500e-15
       5406.3652   2.3910033e-15
       5408.6524   2.1730050e-15
       5410.9396   1.9097510e-15
       5413.2268   1.9520017e-15
       5415.5140   2.2003210e-15
       5417.8012   2.3151593e-15
       5420.0884   2.2654377e-15
       5422.3757   2.1476111e-15
       5424.6629   2.1072374e-15
       5426.9501   2.2956234e-15
       5429.2373   2.4377318e-15
       5431.5245   2.2100202e-15
       5433.8117   2.0803532e-15
       5436.0989   2.5157321e-15
       5438.3861   2.8587772e-15
       5440.6734   2.5248134e-15
       5442.9606   2.1183452e-15
       5445.2478   2.1575348e-15
       5447.5350   2.3409558e-15
       5449.8222   2.4186603e-15
       5452.1094   2.4637775e-15
       5454.3966   2.5050577e-15
       5456.6838   2.4691642e-15
       5458.9711   2.3466905e-15
       5461.2583   2.2142741e-15
       5463.5455   2.1634380e-15
       5465.8327   2.3281624e-15
       5468.1199   2.6057649e-15
       5470.4071   2.6096502e-15
       5472.6943   2.3443776e-15
       5474.9815   2.1661123e-15
       5477.2688   2.1757932e-15
       5479.5560   2.3022630e-15
       5481.8432   2.4358208e-15
       5484.1304   2.4367162e-15
       5486.4176   2.3444868e-15
       5488.7048   2.2806310e-15
       5490.9920   2.2875031e-15
       5493.2792   2.3754026e-15
       5495.5665   2.4286133e-15
       5497.8537   2.3214532e-15
       5500.1409   2.2277241e-15
       5502.4281   2.3318586e-15
       5504.7153   2.4685820e-15
       5507.0025   2.4592372e-15
       5509.2897   2.2925196e-15
       5511.5769   2.0319771e-15
       5513.8642   1.9839071e-15
       5516.1514   2.2789280e-15
       5518.4386   2.4508100e-15
       5520.7258   2.2510780e-15
       5523.0130   2.0218469e-15
       5525.3002   1.9616194e-15
       5527.5874   1.9836413e-15
       5529.8746   2.0091721e-15
       5532.1619   1.9428903e-15
       5534.4491   1.8197498e-15
       5536.7363   1.8540171e-15
       5539.0235   2.0089451e-15
       5541.3107   2.0102439e-15
       5543.5979   1.8802677e-15
       5545.8851   1.8492751e-15
       5548.1723   1.9435919e-15
       5550.4596   2.0830568e-15
       5552.7468   2.1719649e-15
       5555.0340   2.1070665e-15
       5557.3212   2.0386285e-15
       5559.6084   2.1865238e-15
       5561.8956   2.4123197e-15
       5564.1828   2.5005554e-15
       5566.4700   2.4249115e-15
       5568.7573   2.2247326e-15
       5571.0445   2.1657413e-15
       5573.3317   2.4345813e-15
       5575.6189   2.5703333e-15
       5577.9061   2.2355675e-15
       5580.1933   1.8909476e-15
       5582.4805   1.8807921e-15
       5584.7677   2.0030229e-15
       5587.0550   2.0741440e-15
       5589.3422   2.0024534e-15
       5591.6294   1.7911880e-15
       5593.9166   1.6565465e-15
       5596.2038   1.6511852e-15
       5598.4910   1.5359175e-15
       5600.7782   1.3575556e-15
       5603.0654   1.5276105e-15
       5605.3527   1.9562992e-15
       5607.6399   2.0749413e-15
       5609.9271   1.8947855e-15
       5612.2143   1.8611154e-15
       5614.5015   1.9294277e-15
       5616.7887   1.7851085e-15
       5619.0759   1.5289030e-15
       5621.3632   1.4314839e-15
       5623.6504   1.4706213e-15
       5625.9376   1.5262824e-15
       5628.2248   1.5390901e-15
       5630.5120   1.4729942e-15
       5632.7992   1.4942062e-15
       5635.0864   1.7554637e-15
       5637.3736   1.9321115e-15
       5639.6609   1.7356716e-15
       5641.9481   1.5092255e-15
       5644.2353   1.5425610e-15
       5646.5225   1.5853583e-15
       5648.8097   1.4430094e-15
       5651.0969   1.1940265e-15
       5653.3841   9.6975560e-16
       5655.6713   1.0319922e-15
       5657.9586   1.4161174e-15
       5660.2458   1.6982459e-15
       5662.5330   1.7010326e-15
       5664.8202   1.6524018e-15
       5667.1074   1.6472271e-15
       5669.3946   1.6197964e-15
       5671.6818   1.5884495e-15
       5673.9690   1.6403953e-15
       5676.2563   1.7400766e-15
       5678.5435   1.7578842e-15
       5680.8307   1.7171672e-15
       5683.1179   1.7393766e-15
       5685.4051   1.7416064e-15
       5687.6923   1.5543380e-15
       5689.9795   1.3554722e-15
       5692.2667   1.4245414e-15
       5694.5540   1.6270933e-15
       5696.8412   1.7241904e-15
       5699.1284   1.7273686e-15
       5701.4156   1.6985489e-15
       5703.7028   1.6043531e-15
       5705.9900   1.4358715e-15
       5708.2772   1.3616459e-15
       5710.5644   1.5022490e-15
       5712.8517   1.7136046e-15
       5715.1389   1.8642375e-15
       5717.4261   1.9704784e-15
       5719.7133   2.0319035e-15
       5722.0005   1.9650997e-15
       5724.2877   1.8028511e-15
       5726.5749   1.8210661e-15
       5728.8621   2.0472994e-15
       5731.1494   2.1016712e-15
       5733.4366   1.8953487e-15
       5735.7238   1.7022278e-15
       5738.0110   1.6460367e-15
       5740.2982   1.7151755e-15
       5742.5854   1.8546768e-15
       5744.8726   1.9602842e-15
       5747.1598   2.0122482e-15
       5749.4471   2.0520643e-15
       5751.7343   2.0573418e-15
       5754.0215   1.9849915e-15
       5756.3087   1.8911936e-15
       5758.5959   1.8583810e-15
       5760.8831   1.9719086e-15
       5763.1703   2.2853967e-15
       5765.4575   2.4995374e-15
       5767.7448   2.3121140e-15
       5770.0320   2.0023047e-15
       5772.3192   1.8969133e-15
       5774.6064   1.9417086e-15
       5776.8936   2.0496170e-15
       5779.1808   2.2687314e-15
       5781.4680   2.5618183e-15
       5783.7552   2.5763868e-15
       5786.0425   2.1996337e-15
       5788.3297   1.9784888e-15
       5790.6169   2.1682543e-15
       5792.9041   2.3630213e-15
       5795.1913   2.3844025e-15
       5797.4785   2.4463457e-15
       5799.7657   2.5758497e-15
       5802.0529   2.5654909e-15
       5804.3402   2.4440463e-15
       5806.6274   2.4844049e-15
       5808.9146   2.6172018e-15
       5811.2018   2.5007800e-15
       5813.4890   2.2315398e-15
       5815.7762   2.1636634e-15
       5818.0634   2.3463353e-15
       5820.3506   2.6822702e-15
       5822.6379   2.9318337e-15
       5824.9251   2.8168009e-15
       5827.2123   2.6130997e-15
       5829.4995   2.7277909e-15
       5831.7867   2.8925398e-15
       5834.0739   2.7495336e-15
       5836.3611   2.5697195e-15
       5838.6483   2.6432815e-15
       5840.9356   2.7167115e-15
       5843.2228   2.5661830e-15
       5845.5100   2.3833853e-15
       5847.7972   2.3392425e-15
       5850.0844   2.4339034e-15
       5852.3716   2.6109973e-15
       5854.6588   2.6681463e-15
       5856.9460   2.5545966e-15
       5859.2333   2.5820313e-15
       5861.5205   2.8128009e-15
       5863.8077   2.8658225e-15
       5866.0949   2.6796402e-15
       5868.3821   2.6127106e-15
       5870.6693   2.7449237e-15
       5872.9565   2.8840841e-15
       5875.2437   2.9341703e-15
       5877.5310   2.8589108e-15
       5879.8182   2.7393678e-15
       5882.1054   2.7437491e-15
       5884.3926   2.8216560e-15
       5886.6798   2.8091339e-15
       5888.9670   2.7644991e-15
       5891.2542   2.8244355e-15
       5893.5415   2.8949246e-15
       5895.8287   2.8299567e-15
       5898.1159   2.7381220e-15
       5900.4031   2.7596163e-15
       5902.6903   2.7721179e-15
       5904.9775   2.6445273e-15
       5907.2647   2.4748798e-15
       5909.5519   2.3639499e-15
       5911.8392   2.2695358e-15
       5914.1264   2.1661289e-15
       5916.4136   2.1299071e-15
       5918.7008   2.2005045e-15
       5920.9880   2.3081891e-15
       5923.2752   2.4171289e-15
       5925.5624   2.5958854e-15
       5927.8496   2.8075677e-15
       5930.1369   2.8151090e-15
       5932.4241   2.6352522e-15
       5934.7113   2.6517072e-15
       5936.9985   2.8412504e-15
       5939.2857   2.7245431e-15
       5941.5729   2.3811674e-15
       5943.8601   2.3604379e-15
       5946.1473   2.5795823e-15
       5948.4346   2.5514571e-15
       5950.7218   2.3426905e-15
       5953.0090   2.2852298e-15
       5955.2962   2.4171234e-15
       5957.5834   2.6623475e-15
       5959.8706   2.8431227e-15
       5962.1578   2.7704466e-15
       5964.4450   2.6545073e-15
       5966.7323   2.7608740e-15
       5969.0195   2.9388356e-15
       5971.3067   2.9858631e-15
       5973.5939   2.8173799e-15
       5975.8811   2.4435306e-15
       5978.1683   2.2594190e-15
       5980.4555   2.5051558e-15
       5982.7427   2.6961323e-15
       5985.0300   2.5442212e-15
       5987.3172   2.4818334e-15
       5989.6044   2.7093513e-15
       5991.8916   2.8608068e-15
       5994.1788   2.7847516e-15
       5996.4660   2.7035644e-15
       5998.7532   2.7088902e-15
       6001.0404   2.7245027e-15
       6003.3277   2.7141083e-15
       6005.6149   2.6764952e-15
       6007.9021   2.6023890e-15
       6010.1893   2.4735581e-15
       6012.4765   2.3798630e-15
       6014.7637   2.4756202e-15
       6017.0509   2.7033778e-15
       6019.3381   2.8999268e-15
       6021.6254   2.9119309e-15
       6023.9126   2.6091195e-15
       6026.1998   2.2615935e-15
       6028.4870   2.2397258e-15
       6030.7742   2.3380632e-15
       6033.0614   2.2443309e-15
       6035.3486   2.1007513e-15
       6037.6358   2.0947730e-15
       6039.9231   2.1636239e-15
       6042.2103   2.2248457e-15
       6044.4975   2.2546509e-15
       6046.7847   2.2466358e-15
       6049.0719   2.2610849e-15
       6051.3591   2.3183153e-15
       6053.6463   2.2840813e-15
       6055.9335   2.1326898e-15
       6058.2208   2.1068079e-15
       6060.5080   2.2725368e-15
       6062.7952   2.3582571e-15
       6065.0824   2.3075887e-15
       6067.3696   2.3914336e-15
       6069.6568   2.5753743e-15
       6071.9440   2.4817583e-15
       6074.2312   2.1506603e-15
       6076.5185   1.9729898e-15
       6078.8057   2.0372182e-15
       6081.0929   2.2346437e-15
       6083.3801   2.4075564e-15
       6085.6673   2.3630822e-15
       6087.9545   2.2129785e-15
       6090.2417   2.2016641e-15
       6092.5289   2.2430780e-15
       6094.8162   2.1576384e-15
       6097.1034   2.0520382e-15
       6099.3906   2.0784541e-15
       6101.6778   2.1516190e-15
       6103.9650   2.1616496e-15
       6106.2522   2.1354512e-15
       6108.5394   2.1178699e-15
       6110.8266   2.1689773e-15
       6113.1139   2.3039249e-15
       6115.4011   2.3485058e-15
       6117.6883   2.2120040e-15
       6119.9755   2.0862643e-15
       6122.2627   2.0923992e-15
       6124.5499   2.1422845e-15
       6126.8371   2.2127499e-15
       6129.1243   2.4354348e-15
       6131.4116   2.7241737e-15
       6133.6988   2.6593560e-15
       6135.9860   2.2836051e-15
       6138.2732   2.1821465e-15
       6140.5604   2.3918600e-15
       6142.8476   2.4623624e-15
       6145.1348   2.3419794e-15
       6147.4221   2.2358404e-15
       6149.7093   2.2461494e-15
       6151.9965   2.4302411e-15
       6154.2837   2.6265213e-15
       6156.5709   2.5856951e-15
       6158.8581   2.3784353e-15
       6161.1453   2.1880180e-15
       6163.4325   2.0932464e-15
       6165.7198   2.1308413e-15
       6168.0070   2.2630252e-15
       6170.2942   2.4194236e-15
       6172.5814   2.4510584e-15
       6174.8686   2.2679918e-15
       6177.1558   2.1335061e-15
       6179.4430   2.2411219e-15
       6181.7302   2.3337507e-15
       6184.0175   2.2419192e-15
       6186.3047   2.1727993e-15
       6188.5919   2.2361805e-15
       6190.8791   2.2795394e-15
       6193.1663   2.2343549e-15
       6195.4535   2.1828623e-15
       6197.7407   2.1830181e-15
       6200.0279   2.2809015e-15
       6202.3152   2.3959264e-15
       6204.6024   2.2745151e-15
       6206.8896   2.0034580e-15
       6209.1768   1.9908694e-15
       6211.4640   2.2089911e-15
       6213.7512   2.3193317e-15
       6216.0384   2.2695089e-15
       6218.3256   2.1639822e-15
       6220.6129   2.0623305e-15
       6222.9001   2.0110111e-15
       6225.1873   2.0148735e-15
       6227.4745   2.0540069e-15
       6229.7617   2.0866305e-15
       6232.0489   2.0729741e-15
       6234.3361   1.9808546e-15
       6236.6233   1.8102287e-15
       6238.9106   1.8043785e-15
       6241.1978   2.1337790e-15
       6243.4850   2.4031410e-15
       6245.7722   2.2996764e-15
       6248.0594   2.1083835e-15
       6250.3466   2.0573615e-15
       6252.6338   2.0354614e-15
       6254.9210   1.9761657e-15
       6257.2083   1.9438031e-15
       6259.4955   1.9615648e-15
       6261.7827   1.9761736e-15
       6264.0699   1.9902231e-15
       6266.3571   2.1054719e-15
       6268.6443   2.2686926e-15
       6270.9315   2.2304720e-15
       6273.2187   2.0235752e-15
       6275.5060   1.9548833e-15
       6277.7932   2.0145872e-15
       6280.0804   1.9521085e-15
       6282.3676   1.8496406e-15
       6284.6548   1.9773569e-15
       6286.9420   2.1705134e-15
       6289.2292   2.0834428e-15
       6291.5164   1.8937825e-15
       6293.8037   1.9396852e-15
       6296.0909   2.1111283e-15
       6298.3781   2.1928525e-15
       6300.6653   2.1577919e-15
       6302.9525   2.0321155e-15
       6305.2397   1.9577174e-15
       6307.5269   2.0510194e-15
       6309.8141   2.1640368e-15
       6312.1014   2.1650753e-15
       6314.3886   2.1289667e-15
       6316.6758   2.1283402e-15
       6318.9630   2.1820951e-15
       6321.2502   2.2828394e-15
       6323.5374   2.3565818e-15
       6325.8246   2.3698159e-15
       6328.1118   2.3781719e-15
       6330.3991   2.4016065e-15
       6332.6863   2.4120357e-15
       6334.9735   2.3660990e-15
       6337.2607   2.1890850e-15
       6339.5479   1.9485815e-15
       6341.8351   1.8508112e-15
       6344.1223   1.9171025e-15
       6346.4095   2.0274186e-15
       6348.6968   2.1263445e-15
       6350.9840   2.1877166e-15
       6353.2712   2.2473114e-15
       6355.5584   2.3800774e-15
       6357.8456   2.4312536e-15
       6360.1328   2.1865278e-15
       6362.4200   1.9482706e-15
       6364.7072   2.1065033e-15
       6366.9945   2.3554681e-15
       6369.2817   2.3051406e-15
       6371.5689   2.1283473e-15
       6373.8561   2.0529526e-15
       6376.1433   2.0688238e-15
       6378.4305   2.1474315e-15
       6380.7177   2.3196916e-15
       6383.0049   2.5526223e-15
       6385.2922   2.6071151e-15
       6387.5794   2.3934902e-15
       6389.8666   2.2177070e-15
       6392.1538   2.2440999e-15
       6394.4410   2.3197035e-15
       6396.7282   2.3633614e-15
       6399.0154   2.4146998e-15
       6401.3027   2.4546115e-15
       6403.5899   2.4009492e-15
       6405.8771   2.2707848e-15
       6408.1643   2.1711596e-15
       6410.4515   2.1549720e-15
       6412.7387   2.2330435e-15
       6415.0259   2.3483990e-15
       6417.3131   2.4039099e-15
       6419.6004   2.3653333e-15
       6421.8876   2.2357866e-15
       6424.1748   2.1155372e-15
       6426.4620   2.1310770e-15
       6428.7492   2.2406164e-15
       6431.0364   2.3519498e-15
       6433.3236   2.3775921e-15
       6435.6108   2.2620451e-15
       6437.8981   2.2242334e-15
       6440.1853   2.4504889e-15
       6442.4725   2.6594620e-15
       6444.7597   2.6055822e-15
       6447.0469   2.4545301e-15
       6449.3341   2.3614211e-15
       6451.6213   2.3129065e-15
       6453.9085   2.2989780e-15
       6456.1958   2.3209193e-15
       6458.4830   2.3857994e-15
       6460.7702   2.5492693e-15
       6463.0574   2.7480695e-15
       6465.3446   2.7064911e-15
       6467.6318   2.4486435e-15
       6469.9190   2.3936428e-15
       6472.2062   2.5916307e-15
       6474.4935   2.7204750e-15
       6476.7807   2.6974295e-15
       6479.0679   2.6228194e-15
       6481.3551   2.5079820e-15
       6483.6423   2.3256699e-15
       6485.9295   2.1419547e-15
       6488.2167   2.0490965e-15
       6490.5039   2.1402303e-15
       6492.7912   2.4884501e-15
       6495.0784   2.7439476e-15
       6497.3656   2.4947376e-15
       6499.6528   2.1212498e-15
       6501.9400   2.1153901e-15
       6504.2272   2.2443815e-15
       6506.5144   2.2164857e-15
       6508.8016   2.1659747e-15
       6511.0889   2.2327310e-15
       6513.3761   2.4167880e-15
       6515.6633   2.6575201e-15
       6517.9505   2.6819878e-15
       6520.2377   2.4117241e-15
       6522.5249   2.3415926e-15
       6524.8121   2.6551962e-15
       6527.0993   2.8417013e-15
       6529.3866   2.6658461e-15
       6531.6738   2.3409922e-15
       6533.9610   2.0761467e-15
       6536.2482   2.0988466e-15
       6538.5354   2.3772480e-15
       6540.8226   2.5920396e-15
       6543.1098   2.6424447e-15
       6545.3970   2.6040342e-15
       6547.6843   2.5469770e-15
       6549.9715   2.5551297e-15
       6552.2587   2.5580010e-15
       6554.5459   2.4110486e-15
       6556.8331   2.2016879e-15
       6559.1203   2.0968968e-15
       6561.4075   2.1981213e-15
       6563.6947   2.5518321e-15
       6565.9820   2.8796229e-15
       6568.2692   2.8766598e-15
       6570.5564   2.6503024e-15
       6572.8436   2.3924342e-15
       6575.1308   2.2588780e-15
       6577.4180   2.3438184e-15
       6579.7052   2.5209756e-15
       6581.9924   2.6293150e-15
       6584.2797   2.4589177e-15
       6586.5669   1.9983395e-15
       6588.8541   1.7779547e-15
       6591.1413   2.0446037e-15
       6593.4285   2.3797602e-15
       6595.7157   2.5613619e-15
       6598.0029   2.7442695e-15
       6600.2901   2.9124948e-15
       6602.5774   2.8297352e-15
       6604.8646   2.5389888e-15
       6607.1518   2.3682537e-15
       6609.4390   2.3824946e-15
       6611.7262   2.4196498e-15
       6614.0134   2.4780327e-15
       6616.3006   2.6619766e-15
       6618.5878   2.7894770e-15
       6620.8751   2.5503869e-15
       6623.1623   2.1871194e-15
       6625.4495   2.1417483e-15
       6627.7367   2.3301288e-15
       6630.0239   2.5061461e-15
       6632.3111   2.5592049e-15
       6634.5983   2.4341352e-15
       6636.8855   2.3087523e-15
       6639.1728   2.3638977e-15
       6641.4600   2.4692836e-15
       6643.7472   2.4849317e-15
       6646.0344   2.4363666e-15
       6648.3216   2.3691546e-15
       6650.6088   2.3586463e-15
       6652.8960   2.4291773e-15
       6655.1832   2.4409844e-15
       6657.4705   2.3384334e-15
       6659.7577   2.2736070e-15
       6662.0449   2.3007395e-15
       6664.3321   2.2900833e-15
       6666.6193   2.2290529e-15
       6668.9065   2.2656528e-15
       6671.1937   2.4096359e-15
       6673.4810   2.5310077e-15
       6675.7682   2.5658326e-15
       6678.0554   2.4957984e-15
       6680.3426   2.3950302e-15
       6682.6298   2.4139665e-15
       6684.9170   2.4546606e-15
       6687.2042   2.2818974e-15
       6689.4914   2.1026583e-15
       6691.7787   2.2848383e-15
       6694.0659   2.5168640e-15
       6696.3531   2.3211423e-15
       6698.6403   2.0107454e-15
       6700.9275   2.0305470e-15
       6703.2147   2.1920188e-15
       6705.5019   2.2316070e-15
       6707.7891   2.1750505e-15
       6710.0764   2.0895509e-15
       6712.3636   2.0778727e-15
       6714.6508   2.1959627e-15
       6716.9380   2.3046067e-15
       6719.2252   2.2960474e-15
       6721.5124   2.1771031e-15
       6723.7996   2.0210551e-15
       6726.0868   2.0457419e-15
       6728.3741   2.3003978e-15
       6730.6613   2.5286996e-15
       6732.9485   2.5992100e-15
       6735.2357   2.5609498e-15
       6737.5229   2.4623735e-15
       6739.8101   2.3719966e-15
       6742.0973   2.2744431e-15
       6744.3845   2.0599481e-15
       6746.6718   1.8619191e-15
       6748.9590   1.9694035e-15
       6751.2462   2.3117493e-15
       6753.5334   2.6308709e-15
       6755.8206   2.7387018e-15
       6758.1078   2.4994947e-15
       6760.3950   2.1508937e-15
       6762.6822   2.0363260e-15
       6764.9695   2.1551231e-15
       6767.2567   2.3932315e-15
       6769.5439   2.4762767e-15
       6771.8311   2.1837071e-15
       6774.1183   1.8839837e-15
       6776.4055   1.9271306e-15
       6778.6927   2.0956850e-15
       6780.9799   2.1769781e-15
       6783.2672   2.2185518e-15
       6785.5544   2.2679064e-15
       6787.8416   2.3519237e-15
       6790.1288   2.4614196e-15
       6792.4160   2.4916275e-15
       6794.7032   2.3999818e-15
       6796.9904   2.2573095e-15
       6799.2776   2.1258937e-15
       6801.5649   2.0421239e-15
       6803.8521   2.0520018e-15
       6806.1393   2.2259024e-15
       6808.4265   2.4264776e-15
       6810.7137   2.3302158e-15
       6813.0009   1.9966531e-15
       6815.2881   1.7504631e-15
       6817.5753   1.7077900e-15
       6819.8626   1.8684012e-15
       6822.1498   2.0685817e-15
       6824.4370   2.0729709e-15
       6826.7242   1.9612539e-15
       6829.0114   1.9189937e-15
       6831.2986   1.9063498e-15
       6833.5858   1.8411153e-15
       6835.8730   1.7943266e-15
       6838.1603   1.8429709e-15
       6840.4475   1.9232168e-15
       6842.7347   1.9697064e-15
       6845.0219   2.0294617e-15
       6847.3091   2.1353539e-15
       6849.5963   2.2324115e-15
       6851.8835   2.2715291e-15
       6854.1707   2.2192818e-15
       6856.4580   2.1006730e-15
       6858.7452   2.0865862e-15
       6861.0324   2.2062044e-15
       6863.3196   2.2187013e-15
       6865.6068   2.0324897e-15
       6867.8940   1.7633222e-15
       6870.1812   1.5544393e-15
       6872.4684   1.5959979e-15
       6874.7557   1.8349392e-15
       6877.0429   1.9845304e-15
       6879.3301   1.9931988e-15
       6881.6173   1.9804639e-15
       6883.9045   1.9783235e-15
       6886.1917   1.9787459e-15
       6888.4789   1.9748281e-15
       6890.7661   1.9552250e-15
       6893.0534   1.9286130e-15
       6895.3406   1.9100706e-15
       6897.6278   1.8949192e-15
       6899.9150   1.8766821e-15
       6902.2022   1.8435729e-15
       6904.4894   1.7942080e-15
       6906.7766   1.8567215e-15
       6909.0638   2.1099797e-15
       6911.3511   2.2861260e-15
       6913.6383   2.1821457e-15
       6915.9255   1.9977312e-15
       6918.2127   1.9048421e-15
       6920.4999   1.8722826e-15
       6922.7871   1.8794174e-15
       6925.0743   1.9491771e-15
       6927.3616   2.0696701e-15
       6929.6488   2.1702729e-15
       6931.9360   2.2383803e-15
       6934.2232   2.3671906e-15
       6936.5104   2.5040041e-15
       6938.7976   2.4106839e-15
       6941.0848   2.1311205e-15
       6943.3720   1.9788242e-15
       6945.6593   1.9634315e-15
       6947.9465   1.8693662e-15
       6950.2337   1.7481859e-15
       6952.5209   1.7905766e-15
       6954.8081   1.9691583e-15
       6957.0953   2.1590907e-15
       6959.3825   2.2906710e-15
       6961.6697   2.3210166e-15
       6963.9570   2.2189180e-15
       6966.2442   1.9828432e-15
       6968.5314   1.7990623e-15
       6970.8186   1.8443884e-15
       6973.1058   1.9533496e-15
       6975.3930   1.9422235e-15
       6977.6802   1.8339758e-15
       6979.9674   1.6996230e-15
       6982.2547   1.7294457e-15
       6984.5419   1.9967915e-15
       6986.8291   2.1745680e-15
       6989.1163   2.0710646e-15
       6991.4035   1.8774256e-15
       6993.6907   1.7398884e-15
       6995.9779   1.6976835e-15
       6998.2651   1.7427090e-15
       7000.5524   1.7761647e-15
       7002.8396   1.7756451e-15
       7005.1268   1.8272729e-15
       7007.4140   1.9115766e-15
       7009.7012   1.9082489e-15
       7011.9884   1.8440838e-15
       7014.2756   1.8502884e-15
       7016.5628   1.9444375e-15
       7018.8501   2.0789848e-15
       7021.1373   2.1744319e-15
       7023.4245   2.1415924e-15
       7025.7117   2.0184836e-15
       7027.9989   1.8938608e-15
       7030.2861   1.8319754e-15
       7032.5733   1.8760857e-15
       7034.8605   1.9656637e-15
       7037.1478   2.0203614e-15
       7039.4350   2.0126532e-15
       7041.7222   1.9424505e-15
       7044.0094   1.9012083e-15
       7046.2966   1.9561710e-15
       7048.5838   2.0187391e-15
       7050.8710   2.0194004e-15
       7053.1582   1.9830813e-15
       7055.4455   1.9585487e-15
       7057.7327   2.0717125e-15
       7060.0199   2.2980557e-15
       7062.3071   2.2860414e-15
       7064.5943   1.9845984e-15
       7066.8815   1.8412379e-15
       7069.1687   1.9425431e-15
       7071.4559   1.9076984e-15
       7073.7432   1.7318377e-15
       7076.0304   1.7737712e-15
       7078.3176   1.9997031e-15
       7080.6048   2.0829034e-15
       7082.8920   2.0365680e-15
       7085.1792   2.0743029e-15
       7087.4664   2.1559125e-15
       7089.7536   2.1292403e-15
       7092.0409   2.0755883e-15
       7094.3281   2.1490665e-15
       7096.6153   2.2026315e-15
       7098.9025   2.0358181e-15
       7101.1897   1.8657791e-15
       7103.4769   1.9455662e-15
       7105.7641   2.0516743e-15
       7108.0513   1.9508516e-15
       7110.3386   1.8322372e-15
       7112.6258   1.8660528e-15
       7114.9130   1.9196835e-15
       7117.2002   1.8922599e-15
       7119.4874   1.8565095e-15
       7121.7746   1.8730349e-15
       7124.0618   1.9626382e-15
       7126.3490   2.1064084e-15
       7128.6363   2.2115159e-15
       7130.9235   2.2171928e-15
       7133.2107   2.1007283e-15
       7135.4979   1.9535497e-15
       7137.7851   2.0349093e-15
       7140.0723   2.2698063e-15
       7142.3595   2.2288576e-15
       7144.6467   1.9552930e-15
       7146.9340   1.8668264e-15
       7149.2212   1.9595565e-15
       7151.5084   1.9756768e-15
       7153.7956   1.9143087e-15
       7156.0828   1.8905276e-15
       7158.3700   1.8792868e-15
       7160.6572   1.8145356e-15
       7162.9444   1.7761624e-15
       7165.2317   1.8676458e-15
       7167.5189   2.0151520e-15
       7169.8061   2.1127474e-15
       7172.0933   2.1597219e-15
       7174.3805   2.1716279e-15
       7176.6677   2.1219545e-15
       7178.9549   2.0089696e-15
       7181.2422   1.9396299e-15
       7183.5294   1.9828638e-15
       7185.8166   2.0590732e-15
       7188.1038   2.0954603e-15
       7190.3910   2.0601055e-15
       7192.6782   1.9682660e-15
       7194.9654   1.9367372e-15
       7197.2526   2.0010581e-15
       7199.5399   2.0523838e-15
       7201.8271   2.0564290e-15
       7204.1143   2.0796018e-15
       7206.4015   2.1276054e-15
       7208.6887   2.1443150e-15
       7210.9759   2.1505282e-15
       7213.2631   2.2240926e-15
       7215.5503   2.3455119e-15
       7217.8376   2.4433447e-15
       7220.1248   2.4340276e-15
       7222.4120   2.2260938e-15
       7224.6992   2.0359700e-15
       7226.9864   2.1837387e-15
       7229.2736   2.3346572e-15
       7231.5608   2.0158670e-15
       7233.8480   1.6668753e-15
       7236.1353   1.8363543e-15
       7238.4225   2.1607320e-15
       7240.7097   2.2043155e-15
       7242.9969   2.1181665e-15
       7245.2841   2.0825973e-15
       7247.5713   2.0615419e-15
       7249.8585   2.0272628e-15
       7252.1457   2.0043431e-15
       7254.4330   2.0177409e-15
       7256.7202   2.1119865e-15
       7259.0074   2.2714207e-15
       7261.2946   2.3507506e-15
       7263.5818   2.3028222e-15
       7265.8690   2.2521182e-15
       7268.1562   2.2525509e-15
       7270.4434   2.2574313e-15
       7272.7307   2.2699431e-15
       7275.0179   2.3461597e-15
       7277.3051   2.4361158e-15
       7279.5923   2.4069710e-15
       7281.8795   2.2784249e-15
       7284.1667   2.1604480e-15
       7286.4539   2.1412088e-15
       7288.7411   2.3035262e-15
       7291.0284   2.4118103e-15
       7293.3156   2.1258652e-15
       7295.6028   1.8073629e-15
       7297.8900   1.9752829e-15
       7300.1772   2.3806999e-15
       7302.4644   2.6171227e-15
       7304.7516   2.5035081e-15
       7307.0388   1.9986242e-15
       7309.3261   1.6552074e-15
       7311.6133   1.9142913e-15
       7313.9005   2.2704692e-15
       7316.1877   2.3005790e-15
       7318.4749   2.2587680e-15
       7320.7621   2.3267963e-15
       7323.0493   2.3926850e-15
       7325.3365   2.3729339e-15
       7327.6238   2.2221310e-15
       7329.9110   1.9908409e-15
       7332.1982   1.9058783e-15
       7334.4854   2.0230247e-15
       7336.7726   2.1574027e-15
       7339.0598   2.2370886e-15
       7341.3470   2.3068855e-15
       7343.6342   2.3878085e-15
       7345.9215   2.4957889e-15
       7348.2087   2.5753822e-15
       7350.4959   2.5221953e-15
       7352.7831   2.3774323e-15
       7355.0703   2.2626194e-15
       7357.3575   2.1868457e-15
       7359.6447   2.1105279e-15
       7361.9319   2.1238458e-15
       7364.2192   2.3288379e-15
       7366.5064   2.5456315e-15
       7368.7936   2.5574916e-15
       7371.0808   2.3903136e-15
       7373.3680   2.1396751e-15
       7375.6552   2.0294032e-15
       7377.9424   2.2031828e-15
       7380.2296   2.3001415e-15
       7382.5169   2.0767637e-15
       7384.8041   1.9483758e-15
       7387.0913   2.1540410e-15
       7389.3785   2.3091873e-15
       7391.6657   2.2019196e-15
       7393.9529   2.0318142e-15
       7396.2401   1.9610973e-15
       7398.5273   2.1058967e-15
       7400.8146   2.3917967e-15
       7403.1018   2.4531648e-15
       7405.3890   2.2415174e-15
       7407.6762   2.0756342e-15
       7409.9634   2.0026923e-15
       7412.2506   1.8432059e-15
       7414.5378   1.6201428e-15
       7416.8250   1.4687743e-15
       7419.1123   1.4932871e-15
       7421.3995   1.7817792e-15
       7423.6867   2.0886776e-15
       7425.9739   2.0487350e-15
       7428.2611   1.8145760e-15
       7430.5483   1.7012232e-15
       7432.8355   1.7655038e-15
       7435.1228   1.9796152e-15
       7437.4100   2.2016483e-15
       7439.6972   2.2838962e-15
       7441.9844   2.2390178e-15
       7444.2716   2.1214404e-15
       7446.5588   2.0455165e-15
       7448.8460   2.0755337e-15
       7451.1332   2.0268673e-15
       7453.4205   1.8152135e-15
       7455.7077   1.7248659e-15
       7457.9949   1.8675383e-15
       7460.2821   1.9044435e-15
       7462.5693   1.7533012e-15
       7464.8565   1.8286445e-15
       7467.1437   2.1863300e-15
       7469.4309   2.3811935e-15
       7471.7182   2.2517077e-15
       7474.0054   1.9348270e-15
       7476.2926   1.6111967e-15
       7478.5798   1.5120059e-15
       7480.8670   1.6473133e-15
       7483.1542   1.8638246e-15
       7485.4414   2.0031985e-15
       7487.7286   1.9081856e-15
       7490.0159   1.7127859e-15
       7492.3031   1.6787726e-15
       7494.5903   1.7612641e-15
       7496.8775   1.8138870e-15
       7499.1647   1.8828764e-15
       7501.4519   2.0380313e-15
       7503.7391   2.1575127e-15
       7506.0263   2.1164951e-15
       7508.3136   1.9299078e-15
       7510.6008   1.6746191e-15
       7512.8880   1.6361659e-15
       7515.1752   1.9688427e-15
       7517.4624   2.2668725e-15
       7519.7496   2.2320650e-15
       7522.0368   2.0147754e-15
       7524.3240   1.7778867e-15
       7526.6113   1.6606810e-15
       7528.8985   1.7075456e-15
       7531.1857   1.7725776e-15
       7533.4729   1.7636552e-15
       7535.7601   1.6679953e-15
       7538.0473   1.5537290e-15
       7540.3345   1.6015609e-15
       7542.6217   1.7748469e-15
       7544.9090   1.8235735e-15
       7547.1962   1.7812872e-15
       7549.4834   1.8887724e-15
       7551.7706   2.0463264e-15
       7554.0578   1.9750140e-15
       7556.3450   1.7568749e-15
       7558.6322   1.6244205e-15
       7560.9194   1.6018472e-15
       7563.2067   1.6396589e-15
       7565.4939   1.6819515e-15
       7567.7811   1.6724336e-15
       7570.0683   1.6318020e-15
       7572.3555   1.5989799e-15
       7574.6427   1.5646889e-15
       7576.9299   1.5305878e-15
       7579.2171   1.6222991e-15
       7581.5044   1.8917647e-15
       7583.7916   2.0760036e-15
       7586.0788   1.9939542e-15
       7588.3660   1.7699333e-15
       7590.6532   1.5423727e-15
       7592.9404   1.4388322e-15
       7595.2276   1.4921987e-15
       7597.5148   1.5594779e-15
       7599.8021   1.5324964e-15
       7602.0893   1.3256954e-15
       7604.3765   1.1220828e-15
       7606.6637   1.4710579e-15
       7608.9509   2.1790181e-15
       7611.2381   2.3365627e-15
       7613.5253   1.9757733e-15
       7615.8125   1.8302985e-15
       7618.0998   1.8647872e-15
       7620.3870   1.6117742e-15
       7622.6742   1.3069734e-15
       7624.9614   1.4723686e-15
       7627.2486   1.7011932e-15
       7629.5358   1.3238769e-15
       7631.8230   9.5080112e-16
       7634.1102   1.4049114e-15
       7636.3975   2.0468184e-15
       7638.6847   2.0757853e-15
       7640.9719   1.8042148e-15
       7643.2591   1.6469495e-15
       7645.5463   1.5677880e-15
       7647.8335   1.5148479e-15
       7650.1207   1.5321334e-15
       7652.4079   1.6250232e-15
       7654.6952   1.6901707e-15
       7656.9824   1.6931179e-15
       7659.2696   1.8039807e-15
       7661.5568   2.0396252e-15
       7663.8440   2.0957649e-15
       7666.1312   1.9172607e-15
       7668.4184   1.8378501e-15
       7670.7056   1.9491589e-15
       7672.9929   2.0462371e-15
       7675.2801   2.0905127e-15
       7677.5673   2.1952919e-15
       7679.8545   2.3160333e-15
       7682.1417   2.3025375e-15
       7684.4289   2.1715646e-15
       7686.7161   2.0401607e-15
       7689.0033   1.9473420e-15
       7691.2906   1.8893712e-15
       7693.5778   1.9651053e-15
       7695.8650   2.2823300e-15
       7698.1522   2.5727221e-15
       7700.4394   2.5103439e-15
       7702.7266   2.2997089e-15
       7705.0138   2.2260171e-15
       7707.3011   2.1961320e-15
       7709.5883   2.0972068e-15
       7711.8755   2.0449651e-15
       7714.1627   2.1282999e-15
       7716.4499   2.2582942e-15
       7718.7371   2.3521412e-15
       7721.0243   2.3883859e-15
       7723.3115   2.3769601e-15
       7725.5988   2.4199456e-15
       7727.8860   2.5142672e-15
       7730.1732   2.4173377e-15
       7732.4604   2.1183793e-15
       7734.7476   1.9760905e-15
       7737.0348   2.0912467e-15
       7739.3220   2.2411377e-15
       7741.6092   2.3430266e-15
       7743.8965   2.4591922e-15
       7746.1837   2.4942385e-15
       7748.4709   2.2333441e-15
       7750.7581   1.9047527e-15
       7753.0453   1.9857556e-15
       7755.3325   2.3934570e-15
       7757.6197   2.7832669e-15
       7759.9069   2.9020158e-15
       7762.1942   2.5622826e-15
       7764.4814   2.1338953e-15
       7766.7686   2.1053406e-15
       7769.0558   2.2466920e-15
       7771.3430   2.2117184e-15
       7773.6302   2.1091524e-15
       7775.9174   2.0885708e-15
       7778.2046   2.1256152e-15
       7780.4919   2.1862849e-15
       7782.7791   2.2843708e-15
       7785.0663   2.3987890e-15
       7787.3535   2.3705697e-15
       7789.6407   2.1671058e-15
       7791.9279   2.1138295e-15
       7794.2151   2.3058193e-15
       7796.5023   2.3288521e-15
       7798.7896   2.0764109e-15
       7801.0768   1.9416398e-15
       7803.3640   2.0608134e-15
       7805.6512   2.2724348e-15
       7807.9384   2.4065921e-15
       7810.2256   2.2459501e-15
       7812.5128   1.9496177e-15
       7814.8000   2.0019693e-15
       7817.0873   2.2446607e-15
       7819.3745   2.1206573e-15
       7821.6617   1.7941297e-15
       7823.9489   1.7562152e-15
       7826.2361   1.9705963e-15
       7828.5233   2.2108175e-15
       7830.8105   2.3060407e-15
       7833.0977   2.1288828e-15
       7835.3850   1.9532926e-15
       7837.6722   2.0877941e-15
       7839.9594   2.3482883e-15
       7842.2466   2.4876045e-15
       7844.5338   2.3683525e-15
       7846.8210   1.9778544e-15
       7849.1082   1.7826406e-15
       7851.3954   2.0816520e-15
       7853.6827   2.4719524e-15
       7855.9699   2.6303504e-15
       7858.2571   2.5772624e-15
       7860.5443   2.3664684e-15
       7862.8315   2.0879467e-15
       7865.1187   1.8668628e-15
       7867.4059   1.8719219e-15
       7869.6931   2.0616637e-15
       7871.9804   2.1253969e-15
       7874.2676   1.9636443e-15
       7876.5548   1.6823138e-15
       7878.8420   1.4586963e-15
       7881.1292   1.5446041e-15
       7883.4164   1.8140784e-15
       7885.7036   1.8903979e-15
       7887.9908   1.8177660e-15
       7890.2781   1.8464608e-15
       7892.5653   1.9502323e-15
       7894.8525   2.0049506e-15
       7897.1397   2.0113006e-15
       7899.4269   2.0023917e-15
       7901.7141   1.9243471e-15
       7904.0013   1.7345089e-15
       7906.2885   1.5806551e-15
       7908.5758   1.6090516e-15
       7910.8630   1.8272429e-15
       7913.1502   2.1623891e-15
       7915.4374   2.3068610e-15
       7917.7246   2.0672141e-15
       7920.0118   1.6719123e-15
       7922.2990   1.3683171e-15
       7924.5862   1.3744789e-15
       7926.8735   1.7017136e-15
       7929.1607   1.9133983e-15
       7931.4479   1.8401874e-15
       7933.7351   1.8000257e-15
       7936.0223   1.9021053e-15
       7938.3095   1.9854242e-15
       7940.5967   1.9837093e-15
       7942.8839   1.9142193e-15
       7945.1712   1.7980364e-15
       7947.4584   1.6634748e-15
       7949.7456   1.5792107e-15
       7952.0328   1.6323684e-15
       7954.3200   1.7724400e-15
       7956.6072   1.8839363e-15
       7958.8944   1.8832568e-15
       7961.1817   1.7119024e-15
       7963.4689   1.5875121e-15
       7965.7561   1.7786603e-15
       7968.0433   2.0702135e-15
       7970.3305   2.1631596e-15
       7972.6177   2.1559908e-15
       7974.9049   2.1885456e-15
       7977.1921   2.0969379e-15
       7979.4794   1.7972454e-15
       7981.7666   1.7739792e-15
       7984.0538   2.2908079e-15
       7986.3410   2.6909371e-15
       7988.6282   2.5265797e-15
       7990.9154   2.0545535e-15
       7993.2026   1.5771605e-15
       7995.4898   1.4576000e-15
       7997.7771   1.7344432e-15
       8000.0643   1.8313339e-15
       8002.3515   1.6209797e-15
       8004.6387   1.6294662e-15
       8006.9259   1.8941946e-15
       8009.2131   1.9424790e-15
       8011.5003   1.7263870e-15
       8013.7875   1.5312554e-15
       8016.0748   1.4769974e-15
       8018.3620   1.5776999e-15
       8020.6492   1.7959023e-15
       8022.9364   2.0578923e-15
       8025.2236   2.1767092e-15
       8027.5108   1.9512732e-15
       8029.7980   1.5649737e-15
       8032.0852   1.3147354e-15
       8034.3725   1.3023651e-15
       8036.6597   1.5406666e-15
       8038.9469   1.7332219e-15
       8041.2341   1.6066707e-15
       8043.5213   1.5215816e-15
       8045.8085   1.7838033e-15
       8048.0957   1.9564756e-15
       8050.3829   1.7324531e-15
       8052.6702   1.5414607e-15
       8054.9574   1.6516551e-15
       8057.2446   1.7428941e-15
       8059.5318   1.6375343e-15
       8061.8190   1.5041118e-15
       8064.1062   1.4537463e-15
       8066.3934   1.5065607e-15
       8068.6806   1.6314263e-15
       8070.9679   1.7159886e-15
       8073.2551   1.7165210e-15
       8075.5423   1.6691636e-15
       8077.8295   1.6061621e-15
       8080.1167   1.5606399e-15
       8082.4039   1.5253997e-15
       8084.6911   1.4651223e-15
       8086.9783   1.3701063e-15
       8089.2656   1.2460048e-15
       8091.5528   1.1452374e-15
       8093.8400   1.1316902e-15
       8096.1272   1.2250681e-15
       8098.4144   1.4164812e-15
       8100.7016   1.5473757e-15
       8102.9888   1.4575510e-15
       8105.2760   1.2771745e-15
       8107.5633   1.1779069e-15
       8109.8505   1.2002816e-15
       8112.1377   1.3330848e-15
       8114.4249   1.4234688e-15
       8116.7121   1.3583047e-15
       8118.9993   1.2453735e-15
       8121.2865   1.1742312e-15
       8123.5737   1.1081725e-15
       8125.8610   1.0551769e-15
       8128.1482   1.1426572e-15
       8130.4354   1.3663673e-15
       8132.7226   1.4983510e-15
       8135.0098   1.4300514e-15
       8137.2970   1.2114005e-15
       8139.5842   9.7089937e-16
       8141.8714   9.4003417e-16
       8144.1587   1.0878409e-15
       8146.4459   1.1350851e-15
       8148.7331   1.0804056e-15
       8151.0203   1.1167974e-15
       8153.3075   1.2009935e-15
       8155.5947   1.1728754e-15
       8157.8819   1.0675488e-15
       8160.1691   9.9599905e-16
       8162.4564   9.9112260e-16
       8164.7436   1.0574566e-15
       8167.0308   1.0971603e-15
       8169.3180   1.0071718e-15
       8171.6052   9.7151793e-16
       8173.8924   1.1703427e-15
       8176.1796   1.3512871e-15
       8178.4668   1.2820565e-15
       8180.7541   1.1681144e-15
       8183.0413   1.1820192e-15
       8185.3285   1.1755395e-15
       8187.6157   1.0565667e-15
       8189.9029   9.5816681e-16
       8192.1901   9.4824385e-16
       8194.4773   9.1903735e-16
       8196.7645   8.5078128e-16
       8199.0518   8.9962172e-16
       8201.3390   1.0698822e-15
       8203.6262   1.1424587e-15
       8205.9134   1.0753045e-15
       8208.2006   1.0391238e-15
       8210.4878   1.0338914e-15
       8212.7750   8.9744017e-16
       8215.0623   7.3783326e-16
       8217.3495   8.4840752e-16
       8219.6367   1.1137260e-15
       8221.9239   1.2051027e-15
       8224.2111   1.0660214e-15
       8226.4983   7.6403472e-16
       8228.7855   5.7826496e-16
       8231.0727   8.2427284e-16
       8233.3600   1.2242984e-15
       8235.6472   1.3747771e-15
       8237.9344   1.3426669e-15
       8240.2216   1.2860692e-15
       8242.5088   1.2719263e-15
       8244.7960   1.3391019e-15
       8247.0832   1.4262412e-15
       8249.3704   1.4608201e-15
       8251.6577   1.3898383e-15
       8253.9449   1.2077818e-15
       8256.2321   1.0319954e-15
       8258.5193   9.5213868e-16
       8260.8065   9.7964218e-16
       8263.0937   1.0730565e-15
       8265.3809   1.0861608e-15
       8267.6681   1.0094000e-15
       8269.9554   1.0590670e-15
       8272.2426   1.2353944e-15
       8274.5298   1.2746599e-15
       8276.8170   1.1698499e-15
       8279.1042   1.1535966e-15
       8281.3914   1.2128892e-15
       8283.6786   1.1596097e-15
       8285.9658   1.0569519e-15
       8288.2531   1.1040419e-15
       8290.5403   1.2570130e-15
       8292.8275   1.3642000e-15
       8295.1147   1.4791917e-15
       8297.4019   1.7099099e-15
       8299.6891   1.9167228e-15
       8301.9763   1.9213430e-15
       8304.2635   1.8077110e-15
       8306.5508   1.7025600e-15
       8308.8380   1.5690109e-15
       8311.1252   1.3765362e-15
       8313.4124   1.2236490e-15
       8315.6996   1.2007293e-15
       8317.9868   1.3789211e-15
       8320.2740   1.7117829e-15
       8322.5612   1.8006008e-15
       8324.8485   1.4728724e-15
       8327.1357   1.1299966e-15
       8329.4229   1.0388992e-15
       8331.7101   1.1931398e-15
       8333.9973   1.4489189e-15
       8336.2845   1.4193240e-15
       8338.5717   1.1224925e-15
       8340.8589   1.0875063e-15
       8343.1462   1.3997431e-15
       8345.4334   1.7396384e-15
       8347.7206   1.9049418e-15
       8350.0078   1.7686899e-15
       8352.2950   1.4394215e-15
       8354.5822   1.1730083e-15
       8356.8694   1.0839334e-15
       8359.1566   1.2131969e-15
       8361.4439   1.3356800e-15
       8363.7311   1.1509816e-15
       8366.0183   9.6680521e-16
       8368.3055   1.2024315e-15
       8370.5927   1.5917455e-15
       8372.8799   1.7682707e-15
       8375.1671   1.8015294e-15
       8377.4543   1.8031367e-15
       8379.7416   1.6655939e-15
       8382.0288   1.3524830e-15
       8384.3160   1.1945588e-15
       8386.6032   1.3685069e-15
       8388.8904   1.4466227e-15
       8391.1776   1.2370690e-15
       8393.4648   1.2565233e-15
       8395.7520   1.6620384e-15
       8398.0393   1.8743400e-15
       8400.3265   1.6723837e-15
       8402.6137   1.3766992e-15
       8404.9009   1.2106689e-15
       8407.1881   1.3048892e-15
       8409.4753   1.5751854e-15
       8411.7625   1.7116500e-15
       8414.0497   1.6439627e-15
       8416.3370   1.4821152e-15
       8418.6242   1.4027069e-15
       8420.9114   1.6186091e-15
       8423.1986   2.0286961e-15
       8425.4858   2.3825896e-15
       8427.7730   2.4990825e-15
       8430.0602   2.2494763e-15
       8432.3474   1.9699287e-15
       8434.6347   2.0818419e-15
       8436.9219   2.2115088e-15
       8439.2091   1.9110079e-15
       8441.4963   1.6079426e-15
       8443.7835   1.7440276e-15
       8446.0707   2.0184401e-15
       8448.3579   2.1419278e-15
       8450.6451   2.3187875e-15
       8452.9324   2.6431597e-15
       8455.2196   2.7196642e-15
       8457.5068   2.3832326e-15
       8459.7940   2.0879515e-15
       8462.0812   2.0823964e-15
       8464.3684   2.1707918e-15
       8466.6556   2.2043298e-15
       8468.9428   2.0977574e-15
       8471.2301   1.8931323e-15
       8473.5173   1.8084656e-15
       8475.8045   1.9132329e-15
       8478.0917   2.1373907e-15
       8480.3789   2.3450524e-15
       8482.6661   2.3248275e-15
       8484.9533   2.2333876e-15
       8487.2406   2.4731341e-15
       8489.5278   2.7627811e-15
       8491.8150   2.5106381e-15
       8494.1022   2.0600359e-15
       8496.3894   2.0658291e-15
       8498.6766   2.3450057e-15
       8500.9638   2.4925007e-15
       8503.2510   2.5107591e-15
       8505.5383   2.4824109e-15
       8507.8255   2.3816467e-15
       8510.1127   2.2063705e-15
       8512.3999   2.1610848e-15
       8514.6871   2.3653136e-15
       8516.9743   2.4656798e-15
       8519.2615   2.2332697e-15
       8521.5487   1.9724061e-15
       8523.8360   1.9361724e-15
       8526.1232   2.2011785e-15
       8528.4104   2.6559073e-15
       8530.6976   2.7726463e-15
       8532.9848   2.4714984e-15
       8535.2720   2.4575184e-15
       8537.5592   2.8560174e-15
       8539.8464   3.0278361e-15
       8542.1337   2.8473355e-15
       8544.4209   2.6979990e-15
       8546.7081   2.6468758e-15
       8548.9953   2.5221067e-15
       8551.2825   2.4078332e-15
       8553.5697   2.5314910e-15
       8555.8569   2.7615566e-15
       8558.1441   2.8020268e-15
       8560.4314   2.6824284e-15
       8562.7186   2.5554896e-15
       8565.0058   2.5054057e-15
       8567.2930   2.5862456e-15
       8569.5802   2.6210231e-15
       8571.8674   2.4228470e-15
       8574.1546   2.2797783e-15
       8576.4418   2.4619290e-15
       8578.7291   2.5733944e-15
       8581.0163   2.3003701e-15
       8583.3035   2.0978396e-15
       8585.5907   2.2893437e-15
       8587.8779   2.4900653e-15
       8590.1651   2.4778215e-15
       8592.4523   2.5973519e-15
       8594.7395   2.9647895e-15
       8597.0268   3.1791865e-15
       8599.3140   3.1183103e-15
       8601.6012   3.1476331e-15
       8603.8884   3.3115222e-15
       8606.1756   3.2147066e-15
       8608.4628   2.8847667e-15
       8610.7500   2.7903732e-15
       8613.0372   2.9225127e-15
       8615.3245   2.8839805e-15
       8617.6117   2.7137714e-15
       8619.8989   2.7139968e-15
       8622.1861   2.8584473e-15
       8624.4733   2.9752717e-15
       8626.7605   2.9227287e-15
       8629.0477   2.5850623e-15
       8631.3349   2.2871037e-15
       8633.6222   2.4400470e-15
       8635.9094   2.7674614e-15
       8638.1966   2.8694278e-15
       8640.4838   2.7947980e-15
       8642.7710   2.6734040e-15
       8645.0582   2.6187498e-15
       8647.3454   2.7017143e-15
       8649.6326   2.7688274e-15
       8651.9199   2.6991626e-15
       8654.2071   2.5640473e-15
       8656.4943   2.4528176e-15
       8658.7815   2.4863152e-15
       8661.0687   2.6689713e-15
       8663.3559   2.7308314e-15
       8665.6431   2.6075881e-15
       8667.9303   2.6138955e-15
       8670.2176   2.8082424e-15
       8672.5048   2.8990219e-15
       8674.7920   2.8212407e-15
       8677.0792   2.7484396e-15
       8679.3664   2.7111627e-15
       8681.6536   2.6144326e-15
       8683.9408   2.5699315e-15
       8686.2280   2.8262366e-15
       8688.5153   3.1356077e-15
       8690.8025   3.0034207e-15
       8693.0897   2.6554382e-15
       8695.3769   2.5965261e-15
       8697.6641   2.6464036e-15
       8699.9513   2.4467443e-15
       8702.2385   2.2422720e-15
       8704.5257   2.3557703e-15
       8706.8130   2.5430094e-15
       8709.1002   2.5217175e-15
       8711.3874   2.4604364e-15
       8713.6746   2.5251939e-15
       8715.9618   2.5588394e-15
       8718.2490   2.4582659e-15
       8720.5362   2.4200603e-15
       8722.8234   2.5468868e-15
       8725.1107   2.6294392e-15
       8727.3979   2.5634549e-15
       8729.6851   2.4982599e-15
       8731.9723   2.5147473e-15
       8734.2595   2.5693319e-15
       8736.5467   2.6408643e-15
       8738.8339   2.7372115e-15
       8741.1212   2.8246056e-15
       8743.4084   2.8324522e-15
       8745.6956   2.7510910e-15
       8747.9828   2.6159362e-15
       8750.2700   2.5183898e-15
       8752.5572   2.5894286e-15
       8754.8444   2.7407046e-15
       8757.1316   2.7664347e-15
       8759.4189   2.7083222e-15
       8761.7061   2.7091733e-15
       8763.9933   2.7498318e-15
       8766.2805   2.7619972e-15
       8768.5677   2.8092296e-15
       8770.8549   2.9588207e-15
       8773.1421   2.9617861e-15
       8775.4293   2.6037336e-15
       8777.7166   2.3061325e-15
       8780.0038   2.4214794e-15
       8782.2910   2.4817346e-15
       8784.5782   2.1444258e-15
       8786.8654   1.8447293e-15
       8789.1526   1.8861684e-15
       8791.4398   2.0540410e-15
       8793.7270   2.1972053e-15
       8796.0143   2.3644759e-15
       8798.3015   2.5242075e-15
       8800.5887   2.5098242e-15
       8802.8759   2.3168662e-15
       8805.1631   2.1461351e-15
       8807.4503   2.1387480e-15
       8809.7375   2.3855748e-15
       8812.0247   2.7275986e-15
       8814.3120   2.7743920e-15
       8816.5992   2.5457992e-15
       8818.8864   2.3632427e-15
       8821.1736   2.2548946e-15
       8823.4608   2.0770501e-15
       8825.7480   2.0730848e-15
       8828.0352   2.6113279e-15
       8830.3224   3.1180888e-15
       8832.6097   2.7953952e-15
       8834.8969   2.1749730e-15
       8837.1841   2.0458099e-15
       8839.4713   2.1372539e-15
       8841.7585   2.0438744e-15
       8844.0457   1.9341546e-15
       8846.3329   1.9735760e-15
       8848.6201   1.9506657e-15
       8850.9074   1.7240417e-15
       8853.1946   1.5062617e-15
       8855.4818   1.4767032e-15
       8857.7690   1.6595586e-15
       8860.0562   1.9998503e-15
       8862.3434   2.2878693e-15
       8864.6306   2.3987202e-15
       8866.9178   2.3955025e-15
       8869.2051   2.2961565e-15
       8871.4923   2.0379886e-15
       8873.7795   1.7036705e-15
       8876.0667   1.5148162e-15
       8878.3539   1.5922818e-15
       8880.6411   1.9798018e-15
       8882.9283   2.4392545e-15
       8885.2155   2.5310662e-15
       8887.5028   2.3184292e-15
       8889.7900   2.1500244e-15
       8892.0772   2.1154154e-15
       8894.3644   2.1919263e-15
       8896.6516   2.2223493e-15
       8898.9388   2.0126287e-15
       8901.2260   1.7446715e-15
       8903.5132   1.6759123e-15
       8905.8005   1.5494964e-15
       8908.0877   1.1133851e-15
       8910.3749   1.0677537e-15
       8912.6621   1.9202633e-15
       8914.9493   2.4138210e-15
       8917.2365   1.6726226e-15
       8919.5237   1.1172269e-15
       8921.8109   1.6462107e-15
       8924.0982   1.9949540e-15
       8926.3854   1.5229144e-15
       8928.6726   1.3134176e-15
       8930.9598   1.7613155e-15
       8933.2470   1.9199303e-15
       8935.5342   1.5362774e-15
       8937.8214   1.3718757e-15
       8940.1086   1.6061929e-15
       8942.3959   1.7805927e-15
       8944.6831   1.7244918e-15
       8946.9703   1.4883679e-15
       8949.2575   1.2605392e-15
       8951.5447   1.3422358e-15
       8953.8319   1.7157205e-15
       8956.1191   2.1677623e-15
       8958.4063   2.5311145e-15
       8960.6936   2.6710445e-15
       8962.9808   2.6204465e-15
       8965.2680   2.4851508e-15
       8967.5552   2.4225274e-15
       8969.8424   2.5667050e-15
       8972.1296   2.6326530e-15
       8974.4168   2.3270953e-15
       8976.7040   1.9740806e-15
       8978.9913   1.9016647e-15
       8981.2785   1.8988077e-15
       8983.5657   1.7808759e-15
       8985.8529   1.7764076e-15
       8988.1401   1.9647588e-15
       8990.4273   1.8446470e-15
       8992.7145   1.2586827e-15
       8995.0018   9.5907408e-16
       8997.2890   1.2220884e-15
       8999.5762   1.3421132e-15
       9001.8634   1.1115721e-15
       9004.1506   1.0904369e-15
       9006.4378   1.4049019e-15
       9008.7250   1.6992972e-15
       9011.0122   1.7977065e-15
       9013.2995   1.6639115e-15
       9015.5867   1.4205327e-15
       9017.8739   1.3243080e-15
       9020.1611   1.4064886e-15
       9022.4483   1.5527157e-15
       9024.7355   1.7324982e-15
       9027.0227   1.9457735e-15
       9029.3099   2.1090242e-15
       9031.5972   2.1272099e-15
       9033.8844   2.0642186e-15
       9036.1716   2.0257710e-15
       9038.4588   2.0070079e-15
       9040.7460   1.9834807e-15
       9043.0332   2.0192287e-15
       9045.3204   2.1468517e-15
       9047.6076   2.1418258e-15
       9049.8949   1.8688410e-15
       9052.1821   1.6931409e-15
       9054.4693   1.8354747e-15
       9056.7565   1.8912300e-15
       9059.0437   1.6804463e-15
       9061.3309   1.6880873e-15
       9063.6181   2.0631951e-15
       9065.9053   2.2650240e-15
       9068.1926   2.1129586e-15
       9070.4798   1.9938712e-15
       9072.7670   2.0200608e-15
       9075.0542   1.9764117e-15
       9077.3414   1.8356677e-15
       9079.6286   1.7374790e-15
       9081.9158   1.6850775e-15
       9084.2030   1.5811233e-15
       9086.4903   1.4980939e-15
       9088.7775   1.5975102e-15
       9091.0647   1.8143854e-15
       9093.3519   1.9854471e-15
       9095.6391   1.9962085e-15
       9097.9263   1.7703676e-15
       9100.2135   1.5326151e-15
       9102.5007   1.5637389e-15
       9104.7880   1.6981360e-15
       9107.0752   1.7052399e-15
       9109.3624   1.7334276e-15
       9111.6496   1.9269202e-15
       9113.9368   2.0457332e-15
       9116.2240   1.9189494e-15
       9118.5112   1.8411651e-15
       9120.7984   2.0149550e-15
       9123.0857   2.2549428e-15
       9125.3729   2.3676327e-15
       9127.6601   2.1559964e-15
       9129.9473   1.6611485e-15
       9132.2345   1.4124329e-15
       9134.5217   1.5931487e-15
       9136.8089   1.8162141e-15
       9139.0961   1.8936908e-15
       9141.3834   1.8837290e-15
       9143.6706   1.8305848e-15
       9145.9578   1.7883950e-15
       9148.2450   1.7798705e-15
       9150.5322   1.7898916e-15
       9152.8194   1.8277847e-15
       9155.1066   1.9250329e-15
       9157.3938   1.9800035e-15
       9159.6811   1.8243289e-15
       9161.9683   1.7333659e-15
       9164.2555   2.1158196e-15
       9166.5427   2.4675316e-15
       9168.8299   2.1161289e-15
       9171.1171   1.6639518e-15
       9173.4043   1.8555714e-15
       9175.6915   2.2221571e-15
       9177.9788   2.2109591e-15
       9180.2660   1.9662720e-15
       9182.5532   1.7092185e-15
       9184.8404   1.6403882e-15
       9187.1276   1.8560341e-15
       9189.4148   2.0870007e-15
       9191.7020   2.1404874e-15
       9193.9892   2.1090052e-15
       9196.2765   2.0585085e-15
       9198.5637   1.9774526e-15
       9200.8509   1.8888760e-15
       9203.1381   1.8587717e-15
       9205.4253   1.8994515e-15
       9207.7125   1.9475453e-15
       9209.9997   2.0057249e-15
       9212.2869   2.1606600e-15
       9214.5742   2.2924444e-15
       9216.8614   2.1231861e-15
       9219.1486   1.7427715e-15
       9221.4358   1.4563178e-15
       9223.7230   1.4402900e-15
       9226.0102   1.7971853e-15
       9228.2974   2.1736188e-15
       9230.5846   2.0725446e-15
       9232.8719   1.7141116e-15
       9235.1591   1.5200138e-15
       9237.4463   1.6128966e-15
       9239.7335   1.9945206e-15
       9242.0207   2.3291108e-15
       9244.3079   2.2914604e-15
       9246.5951   1.9709206e-15
       9248.8823   1.5605291e-15
       9251.1696   1.4308527e-15
       9253.4568   1.7617379e-15
       9255.7440   1.9808135e-15
       9258.0312   1.7937714e-15
       9260.3184   1.8591973e-15
       9262.6056   2.3728485e-15
       9264.8928   2.4665563e-15
       9267.1801   1.9105800e-15
       9269.4673   1.5498824e-15
       9271.7545   1.6635381e-15
       9274.0417   1.7893988e-15
       9276.3289   1.7924473e-15
       9278.6161   1.8556323e-15
       9280.9033   1.9269289e-15
       9283.1905   1.7861352e-15
       9285.4778   1.5133600e-15
       9287.7650   1.3758006e-15
       9290.0522   1.3653050e-15
       9292.3394   1.3313818e-15
       9294.6266   1.3247762e-15
       9296.9138   1.4685370e-15
       9299.2010   1.5498460e-15
       9301.4882   1.2969152e-15
       9303.7755   1.2408523e-15
       9306.0627   1.9372426e-15
       9308.3499   2.4854997e-15
       9310.6371   1.9984494e-15
       9312.9243   1.1805171e-15
       9315.2115   8.1205205e-16
       9317.4987   9.9701310e-16
       9319.7859   1.6511615e-15
       9322.0732   2.3706828e-15
       9324.3604   2.7299368e-15
       9326.6476   2.2972821e-15
       9328.9348   1.1806809e-15
       9331.2220   6.5748589e-16
       9333.5092   1.1007221e-15
       9335.7964   1.2252998e-15
       9338.0836   7.2929437e-16
       9340.3709   6.6028765e-16
       9342.6581   1.1849269e-15
       9344.9453   1.5901414e-15
       9347.2325   1.6657639e-15
       9349.5197   1.5748816e-15
       9351.8069   1.4424510e-15
       9354.0941   1.3983462e-15
       9356.3813   1.3912036e-15
       9358.6686   1.2758361e-15
       9360.9558   1.0196402e-15
       9363.2430   6.5185278e-16
       9365.5302   3.8573509e-16
       9367.8174   4.6245427e-16
       9370.1046   9.3467680e-16
       9372.3918   1.7334212e-15
       9374.6790   2.4989323e-15
       9376.9663   2.8552572e-15
       9379.2535   2.5010078e-15
       9381.5407   1.4169503e-15
       9383.8279   6.8029107e-16
       9386.1151   1.0384064e-15
       9388.4023   1.6598102e-15
       9390.6895   1.8865394e-15
       9392.9767   1.9549687e-15
       9395.2640   1.9574548e-15
       9397.5512   1.5834994e-15
       9399.8384   9.2182480e-16
       9402.1256   7.2485131e-16
       9404.4128   1.1713962e-15
       9406.7000   1.6409720e-15
       9408.9872   1.8756855e-15
       9411.2744   2.0421785e-15
       9413.5617   2.0090416e-15
       9415.8489   1.3895385e-15
       9418.1361   6.2477127e-16
       9420.4233   6.9470479e-16
       9422.7105   1.3567117e-15
       9424.9977   1.7229707e-15
       9427.2849   1.7097430e-15
       9429.5721   1.5714827e-15
       9431.8594   1.3677143e-15
       9434.1466   1.1245056e-15
       9436.4338   1.1329708e-15
       9438.7210   1.6460802e-15
       9441.0082   2.0280799e-15
       9443.2954   1.6714496e-15
       9445.5826   1.2815843e-15
       9447.8698   1.5352871e-15
       9450.1571   2.0577420e-15
       9452.4443   2.4444536e-15
       9454.7315   2.6318351e-15
       9457.0187   2.5672342e-15
       9459.3059   2.1300740e-15
       9461.5931   1.4550443e-15
       9463.8803   1.2599634e-15
       9466.1675   1.6651470e-15
       9468.4548   1.6435087e-15
       9470.7420   1.0509064e-15
       9473.0292   1.0177592e-15
       9475.3164   1.7546807e-15
       9477.6036   2.5031672e-15
       9479.8908   2.8215571e-15
       9482.1780   2.5165753e-15
       9484.4652   1.7730664e-15
       9486.7525   1.0437464e-15
       9489.0397   7.5601550e-16
       9491.3269   1.3041599e-15
       9493.6141   2.0001311e-15
       9495.9013   1.7234350e-15
       9498.1885   1.1617620e-15
       9500.4757   1.5092904e-15
       9502.7629   2.0662317e-15
       9505.0502   1.8104367e-15
       9507.3374   1.2957983e-15
       9509.6246   1.2383369e-15
       9511.9118   1.4289725e-15
       9514.1990   1.5629234e-15
       9516.4862   1.4531665e-15
       9518.7734   1.0517393e-15
       9521.0607   8.4585895e-16
       9523.3479   1.1151569e-15
       9525.6351   1.4020884e-15
       9527.9223   1.4119267e-15
       9530.2095   1.2938414e-15
       9532.4967   1.1937093e-15
       9534.7839   1.2645519e-15
       9537.0711   1.4879669e-15
       9539.3584   1.5734847e-15
       9541.6456   1.4618943e-15
       9543.9328   1.3566381e-15
       9546.2200   1.3649308e-15
       9548.5072   1.5183298e-15
       9550.7944   1.7545660e-15
       9553.0816   1.9222407e-15
       9555.3688   2.0361132e-15
       9557.6561   2.2338788e-15
       9559.9433   2.1927544e-15
       9562.2305   1.4287202e-15
       9564.5177   7.2340554e-16
       9566.8049   1.1696521e-15
       9569.0921   2.0311157e-15
       9571.3793   2.2023373e-15
       9573.6665   2.0472329e-15
       9575.9538   2.1229251e-15
       9578.2410   2.1488047e-15
       9580.5282   1.8648260e-15
       9582.8154   1.6224501e-15
       9585.1026   1.7041151e-15
       9587.3898   1.9843295e-15
       9589.6770   2.2469309e-15
       9591.9642   2.0292561e-15
       9594.2515   1.2928274e-15
       9596.5387   1.0764506e-15
       9598.8259   1.6990781e-15
       9601.1131   2.0322579e-15
       9603.4003   1.7576018e-15
       9605.6875   1.8069390e-15
       9607.9747   2.2797831e-15
       9610.2619   2.3132949e-15
       9612.5492   1.9020768e-15
       9614.8364   1.8085391e-15
       9617.1236   1.9960828e-15
       9619.4108   1.8741059e-15
       9621.6980   1.5526706e-15
       9623.9852   1.5049755e-15
       9626.2724   1.7548476e-15
       9628.5596   2.1230121e-15
       9630.8469   2.4398588e-15
       9633.1341   2.5470814e-15
       9635.4213   2.3181302e-15
       9637.7085   1.7102856e-15
       9639.9957   1.1123259e-15
       9642.2829   9.3730605e-16
       9644.5701   1.1708362e-15
       9646.8573   1.6664134e-15
       9649.1446   2.0418676e-15
       9651.4318   2.0496320e-15
       9653.7190   2.1909146e-15
       9656.0062   2.7234713e-15
       9658.2934   2.9077956e-15
       9660.5806   2.4166591e-15
       9662.8678   1.9936188e-15
       9665.1550   2.0477463e-15
       9667.4423   2.3483041e-15
       9669.7295   2.5909220e-15
       9672.0167   2.3304950e-15
       9674.3039   1.6020284e-15
       9676.5911   1.0085631e-15
       9678.8783   9.1868694e-16
       9681.1655   1.5274215e-15
       9683.4527   2.3232709e-15
       9685.7400   2.2085070e-15
       9688.0272   1.6323272e-15
       9690.3144   1.9902247e-15
       9692.6016   2.5981951e-15
       9694.8888   1.8739200e-15
       9697.1760   9.8109602e-16
       9699.4632   1.8665978e-15
       9701.7504   3.1466989e-15
       9704.0377   2.7880832e-15
       9706.3249   1.6428189e-15
       9708.6121   1.0215480e-15
       9710.8993   1.0264482e-15
       9713.1865   1.4914069e-15
       9715.4737   1.6493667e-15
       9717.7609   1.0316316e-15
       9720.0481   9.6471779e-16
       9722.3354   2.1485895e-15
       9724.6226   2.7704877e-15
       9726.9098   1.9160212e-15
       9729.1970   1.1861870e-15
       9731.4842   1.4072907e-15
       9733.7714   1.7891686e-15
       9736.0586   1.9167006e-15
       9738.3458   1.9007298e-15
       9740.6331   1.8642201e-15
       9742.9203   2.0231544e-15
       9745.2075   2.3127570e-15
       9747.4947   2.3823823e-15
       9749.7819   2.1965512e-15
       9752.0691   1.9449311e-15
       9754.3563   1.8172187e-15
       9756.6435   2.0037783e-15
       9758.9308   2.3363135e-15
       9761.2180   2.4763155e-15
       9763.5052   2.4070731e-15
       9765.7924   2.2406504e-15
       9768.0796   2.0366787e-15
       9770.3668   1.8420273e-15
       9772.6540   1.7565759e-15
       9774.9413   1.8427637e-15
       9777.2285   1.6280195e-15
       9779.5157   7.9996336e-16
       9781.8029   4.9253917e-16
       9784.0901   1.5058496e-15
       9786.3773   2.6260395e-15
       9788.6645   2.8481075e-15
       9790.9517   2.3219475e-15
       9793.2390   1.4900630e-15
       9795.5262   1.4496996e-15
       9797.8134   2.4405106e-15
       9800.1006   2.8573376e-15
       9802.3878   2.1376201e-15
       9804.6750   1.4206402e-15
       9806.9622   1.2281498e-15
       9809.2494   1.3365968e-15
       9811.5367   1.6187001e-15
       9813.8239   2.0058483e-15
       9816.1111   2.2270897e-15
       9818.3983   1.8781217e-15
       9820.6855   1.2191087e-15
       9822.9727   9.1938064e-16
       9825.2599   9.9261204e-16
       9827.5471   1.1186879e-15
       9829.8344   1.3272275e-15
       9832.1216   1.7500676e-15
       9834.4088   1.9738947e-15
       9836.6960   1.5331356e-15
       9838.9832   1.0953560e-15
       9841.2704   1.4168601e-15
       9843.5576   1.9099195e-15
       9845.8448   1.9001642e-15
       9848.1321   1.5540841e-15
       9850.4193   1.1410832e-15
       9852.7065   7.9979251e-16
       9854.9937   7.2559594e-16
       9857.2809   1.4532140e-15
       9859.5681   2.8963792e-15
       9861.8553   3.3506366e-15
       9864.1425   2.1547513e-15
       9866.4298   8.4709685e-16
       9868.7170   3.2241542e-16
       9871.0042   4.3219315e-16
       9873.2914   7.6947040e-16
       9875.5786   3.7706758e-16
       9877.8658  -2.2663726e-16
       9880.1530   1.1726492e-15
       9882.4402   3.6184602e-15
       9884.7275   3.6088409e-15
       9887.0147   1.7605894e-15
       9889.3019   1.2182980e-15
       9891.5891   1.9976584e-15
       9893.8763   2.6347697e-15
       9896.1635   2.8698415e-15
       9898.4507   2.8453145e-15
       9900.7379   2.5227426e-15
       9903.0252   1.9008350e-15
       9905.3124   1.3882500e-15
       9907.5996   1.3927776e-15
       9909.8868   1.5247645e-15
       9912.1740   1.3763859e-15
       9914.4612   1.4130372e-15
       9916.7484   1.9997585e-15
       9919.0356   2.7757565e-15
       9921.3229   3.2595471e-15
       9923.6101   2.6020140e-15
       9925.8973   7.4737576e-16
       9928.1845  -2.0544206e-16
       9930.4717   6.3292977e-16
       9932.7589   1.4391605e-15
       9935.0461   1.2933534e-15
       9937.3333   8.3957216e-16
       9939.6206   4.5902802e-16
       9941.9078   2.6283018e-16
       9944.1950   3.2107177e-16
       9946.4822   5.7025026e-16
       9948.7694   1.0153221e-15
       9951.0566   1.7697696e-15
       9953.3438   2.3559965e-15
       9955.6310   1.9112404e-15
       9957.9183   1.1191973e-15
       9960.2055   1.4326680e-15
       9962.4927   2.1808176e-15
       9964.7799   1.9133358e-15
       9967.0671   1.5291569e-15
       9969.3543   2.4363223e-15
       9971.6415   3.3660419e-15
       9973.9287   2.7395133e-15
       9976.2160   1.4401840e-15
       9978.5032   6.4285479e-16
       9980.7904   5.7368972e-16
       9983.0776   1.1595852e-15
       9985.3648   1.4364782e-15
       9987.6520   8.4690543e-16
       9989.9392   8.6738731e-16
       9992.2264   2.0824217e-15
       9994.5137   2.1626241e-15
       9996.8009   2.9876238e-16
       9999.0881  -8.9566203e-16
