# wavelength(A)     flux(erg / s cm2 A)
       3292.8169   5.1903136e-15
       3295.1041  -2.9529586e-17
       3297.3913   3.4061025e-15
       3299.6785   2.3247620e-15
       3301.9657  -2.1939111e-15
       3304.2529   1.4129692e-15
       3306.5401  -4.5764356e-16
       3308.8273   1.3180116e-15
       3311.1145   5.9822499e-17
       3313.4017  -4.3621870e-15
       3315.6889  -4.7864149e-15
       3317.9761  -2.1389592e-15
       3320.2633  -1.5248781e-15
       3322.5506  -3.5338831e-15
       3324.8378   1.0772925e-15
       3327.1250   5.7647502e-15
       3329.4122   1.2400144e-14
       3331.6994   7.1218913e-15
       3333.9866  -6.5551733e-16
       3336.2738  -1.4283192e-15
       3338.5610   5.7145281e-15
       3340.8482  -4.5191780e-16
       3343.1354   3.9505480e-15
       3345.4226   3.3065386e-15
       3347.7098  -1.9956023e-15
       3349.9970  -1.5933029e-15
       3352.2842   4.8102310e-15
       3354.5714   1.7957890e-15
       3356.8586   4.5542875e-15
       3359.1458   2.6309975e-15
       3361.4330  -4.9928082e-16
       3363.7202   1.3522045e-15
       3366.0074   5.2370365e-15
       3368.2946  -2.8493037e-15
       3370.5818  -3.2552971e-15
       3372.8691   3.8536967e-15
       3375.1563   1.1698693e-15
       3377.4435   1.2423317e-15
       3379.7307  -5.9272213e-15
       3382.0179   1.2859366e-15
       3384.3051   5.9080563e-15
       3386.5923   1.4028002e-14
       3388.8795   2.3610310e-15
       3391.1667   1.6931759e-16
       3393.4539  -2.2225204e-15
       3395.7411   6.9950830e-16
       3398.0283   3.5399491e-15
       3400.3155   6.1652844e-15
       3402.6027  -2.1443814e-15
       3404.8899   1.6862476e-15
       3407.1771   5.4587129e-16
       3409.4643   3.6116596e-15
       3411.7515  -1.6411502e-15
       3414.0387  -9.5441561e-16
       3416.3259  -5.2217951e-16
       3418.6131  -1.3094767e-15
       3420.9003   9.5262181e-16
       3423.1876   1.3144242e-15
       3425.4748  -8.4049385e-16
       3427.7620   5.4565484e-15
       3430.0492   4.7251904e-15
       3432.3364   5.6238146e-15
       3434.6236   1.2170601e-14
       3436.9108  -8.6092375e-16
       3439.1980  -5.5707456e-15
       3441.4852  -6.4256714e-16
       3443.7724   2.2266655e-15
       3446.0596  -5.0018937e-16
       3448.3468   3.8195261e-15
       3450.6340   7.2741450e-15
       3452.9212   1.6694154e-18
       3455.2084  -2.2401043e-15
       3457.4956  -2.2128413e-15
       3459.7828  -1.4727808e-15
       3462.0700   5.5692904e-15
       3464.3572   2.0612765e-15
       3466.6444   1.8629652e-15
       3468.9316   1.6930054e-15
       3471.2188   3.5702646e-15
       3473.5061   7.3200461e-15
       3475.7933   2.2255594e-15
       3478.0805   4.9752619e-15
       3480.3677   1.2427156e-16
       3482.6549   4.5604634e-15
       3484.9421   1.2351521e-15
       3487.2293   5.6336501e-16
       3489.5165   4.0674045e-15
       3491.8037   3.9256478e-16
       3494.0909  -2.9402743e-15
       3496.3781  -3.4978393e-16
       3498.6653   4.4196683e-15
       3500.9525   2.4827467e-17
       3503.2397  -2.5785583e-15
       3505.5269  -1.7347420e-15
       3507.8141   3.2554833e-15
       3510.1013   2.2998050e-15
       3512.3885   2.0455918e-15
       3514.6757   4.4417448e-15
       3516.9629  -2.5732418e-16
       3519.2501  -1.0325391e-15
       3521.5373   6.9871073e-16
       3523.8245   4.8456861e-15
       3526.1118   3.3487422e-16
       3528.3990   3.6669983e-16
       3530.6862   1.0106481e-15
       3532.9734   1.5497008e-15
       3535.2606   3.4197127e-15
       3537.5478   1.8445403e-15
       3539.8350  -2.0155443e-15
       3542.1222  -4.6168762e-15
       3544.4094   5.5027806e-15
       3546.6966   3.2516153e-15
       3548.9838  -4.2141558e-15
       3551.2710   3.1650469e-16
       3553.5582   6.6572011e-16
       3555.8454   9.7450673e-16
       3558.1326  -6.3237135e-16
       3560.4198   8.0052928e-16
       3562.7070  -1.9223143e-15
       3564.9942   4.4931284e-15
       3567.2814   2.4360498e-15
       3569.5686   3.7924767e-15
       3571.8558   1.2871126e-15
       3574.1430   1.6332405e-15
       3576.4303   6.1988068e-16
       3578.7175  -8.8884187e-16
       3581.0047   1.4066603e-15
       3583.2919   4.7303919e-17
       3585.5791   1.2669498e-15
       3587.8663   3.0432551e-16
       3590.1535  -5.9496578e-16
       3592.4407  -3.4357815e-15
       3594.7279   2.0586016e-15
       3597.0151   3.7372911e-15
       3599.3023   2.6479982e-15
       3601.5895   2.4723698e-15
       3603.8767  -2.7649084e-15
       3606.1639  -4.9184116e-16
       3608.4511   7.6054039e-16
       3610.7383   2.8926559e-16
       3613.0255  -1.2980113e-15
       3615.3127   3.0665174e-15
       3617.5999   1.9725848e-15
       3619.8871  -8.8685716e-16
       3622.1743   5.1792788e-15
       3624.4615   1.8089024e-15
       3626.7488   2.1475298e-15
       3629.0360   4.7783497e-15
       3631.3232   4.2337554e-15
       3633.6104  -9.6946975e-16
       3635.8976   6.1918565e-17
       3638.1848   3.0102424e-15
       3640.4720  -1.9487089e-15
       3642.7592  -7.7075075e-16
       3645.0464   1.2711644e-15
       3647.3336   2.7339447e-15
       3649.6208   1.7621826e-15
       3651.9080   4.3320438e-16
       3654.1952  -2.8637156e-15
       3656.4824   2.2674866e-15
       3658.7696   2.9966466e-15
       3661.0568  -1.0584106e-15
       3663.3440   1.0692253e-15
       3665.6312   7.8863891e-16
       3667.9184  -2.9790412e-16
       3670.2056   3.9718954e-15
       3672.4928   8.0519613e-16
       3674.7800   1.9898164e-15
       3677.0673  -6.3040324e-16
       3679.3545   8.9572458e-16
       3681.6417  -1.8767987e-15
       3683.9289   1.8925606e-15
       3686.2161   9.8173843e-16
       3688.5033   2.2320789e-15
       3690.7905  -6.3330686e-16
       3693.0777  -3.4798639e-15
       3695.3649  -1.2956422e-16
       3697.6521   1.2191770e-15
       3699.9393   5.4151777e-15
       3702.2265   1.1417120e-15
       3704.5137   1.2205933e-15
       3706.8009  -6.1089851e-16
       3709.0881  -1.3127259e-15
       3711.3753   1.9935549e-15
       3713.6625  -6.0793146e-16
       3715.9497   2.9668446e-15
       3718.2369  -8.6858112e-17
       3720.5241  -2.0346955e-15
       3722.8113   3.5048401e-15
       3725.0985   2.0945372e-15
       3727.3858   2.3664394e-16
       3729.6730  -4.7776820e-16
       3731.9602   5.2406073e-18
       3734.2474  -1.8325834e-15
       3736.5346   3.4557718e-15
       3738.8218   1.7093861e-15
       3741.1090   3.0887797e-15
       3743.3962   5.6245697e-16
       3745.6834   4.6050400e-15
       3747.9706  -1.0406878e-15
       3750.2578   2.2529301e-15
       3752.5450   1.7917841e-15
       3754.8322   4.9539850e-15
       3757.1194   1.3521408e-15
       3759.4066   8.6180412e-16
       3761.6938  -2.5626931e-16
       3763.9810   2.8807144e-15
       3766.2682   1.5636122e-15
       3768.5554   6.5343173e-15
       3770.8426   2.1776389e-16
       3773.1298   1.1711097e-15
       3775.4170   7.6253647e-16
       3777.7042  -1.4852228e-15
       3779.9915   5.9453745e-16
       3782.2787   9.0332147e-16
       3784.5659   3.9342011e-15
       3786.8531   1.6896367e-15
       3789.1403  -8.9735863e-16
       3791.4275   1.6162631e-15
       3793.7147   3.3505533e-15
       3796.0019   3.0300169e-15
       3798.2891   4.7511548e-15
       3800.5763   3.8303262e-15
       3802.8635   2.8653669e-16
       3805.1507   4.2492081e-15
       3807.4379   2.4301855e-15
       3809.7251   3.4195083e-15
       3812.0123  -8.5928071e-16
       3814.2995  -1.1029841e-15
       3816.5867   4.5651839e-15
       3818.8739   3.1461430e-15
       3821.1611   2.7490367e-15
       3823.4483   3.4710866e-15
       3825.7355   1.3396550e-15
       3828.0227   2.6758476e-15
       3830.3100   1.1283740e-15
       3832.5972   2.5765379e-15
       3834.8844   5.0477313e-16
       3837.1716  -1.8355366e-15
       3839.4588   4.0666119e-16
       3841.7460   3.3577838e-15
       3844.0332   2.3774552e-15
       3846.3204   5.7507394e-16
       3848.6076   3.9206439e-16
       3850.8948   2.3889524e-15
       3853.1820   1.4769102e-15
       3855.4692  -1.3511131e-15
       3857.7564   2.5151726e-18
       3860.0436   3.8710215e-15
       3862.3308   2.7708005e-15
       3864.6180   1.6992416e-15
       3866.9052   1.8350623e-15
       3869.1924  -1.3692441e-16
       3871.4796  -2.1648877e-15
       3873.7668   2.2438121e-15
       3876.0540  -2.2589713e-15
       3878.3412   4.6815918e-16
       3880.6285   1.6432788e-15
       3882.9157   2.5322090e-15
       3885.2029   1.5570928e-15
       3887.4901   4.0131517e-15
       3889.7773   2.1559667e-15
       3892.0645  -2.3954514e-16
       3894.3517   1.5767598e-15
       3896.6389   3.4945802e-15
       3898.9261   4.2843580e-15
       3901.2133   2.9310653e-16
       3903.5005  -3.3438148e-16
       3905.7877   7.1575608e-16
       3908.0749   2.1436741e-15
       3910.3621   3.3334150e-15
       3912.6493   1.1976641e-16
       3914.9365   1.9713126e-15
       3917.2237   1.4353396e-16
       3919.5109   1.3525709e-15
       3921.7981   1.7843447e-15
       3924.0853   1.5452648e-15
       3926.3725  -1.4477572e-16
       3928.6597   4.5309393e-15
       3930.9470   4.6707575e-15
       3933.2342   5.7303153e-16
       3935.5214   2.3007172e-15
       3937.8086  -8.0557607e-16
       3940.0958   1.5029095e-15
       3942.3830  -3.3033050e-16
       3944.6702   1.4566691e-16
       3946.9574   4.2541134e-15
       3949.2446   5.9253863e-16
       3951.5318   4.2270116e-17
       3953.8190   3.1319021e-15
       3956.1062   2.3598009e-15
       3958.3934   4.7010682e-16
       3960.6806   3.6131852e-15
       3962.9678   2.1228356e-16
       3965.2550   2.8851253e-15
       3967.5422   8.9997005e-16
       3969.8294   1.5416980e-15
       3972.1166   2.8501540e-15
       3974.4038   1.4094505e-15
       3976.6910   1.1326169e-17
       3978.9782   9.9503618e-16
       3981.2655  -6.3851284e-16
       3983.5527   5.3490849e-16
       3985.8399   3.2206403e-15
       3988.1271   1.0126072e-15
       3990.4143   1.7415220e-15
       3992.7015   2.0091172e-15
       3994.9887   2.3630776e-15
       3997.2759   1.8764277e-15
       3999.5631   1.2683892e-15
       4001.8503   3.3019140e-15
       4004.1375   2.3852725e-15
       4006.4247   7.2846487e-16
       4008.7119   3.2574934e-16
       4010.9991   8.8013544e-16
       4013.2863   1.4328863e-15
       4015.5735   3.4877796e-15
       4017.8607   3.3716327e-16
       4020.1479   2.8481842e-15
       4022.4351   3.2232529e-15
       4024.7223   3.4184072e-15
       4027.0095   2.5052232e-15
       4029.2967   1.8180242e-15
       4031.5839  -2.4720917e-16
       4033.8712   2.8348444e-16
       4036.1584   3.2409432e-15
       4038.4456   2.6178797e-15
       4040.7328   2.5201177e-16
       4043.0200   2.9616768e-15
       4045.3072   2.1819123e-15
       4047.5944   3.6158808e-15
       4049.8816   1.6965307e-15
       4052.1688   2.2975259e-15
       4054.4560   1.2463122e-15
       4056.7432   1.5651276e-15
       4059.0304   1.6017677e-15
       4061.3176   2.0095210e-15
       4063.6048   3.4880974e-16
       4065.8920  -2.2103527e-16
       4068.1792   4.4479332e-16
       4070.4664   6.2018955e-16
       4072.7536   1.7719266e-15
       4075.0408   3.2160038e-15
       4077.3280   6.1491401e-16
       4079.6152  -4.6903613e-17
       4081.9024   2.6028520e-15
       4084.1897   1.9017801e-15
       4086.4769   2.7466337e-15
       4088.7641   2.8761035e-15
       4091.0513   3.5877225e-15
       4093.3385   3.0247184e-15
       4095.6257   2.2123152e-15
       4097.9129   2.4975437e-15
       4100.2001  -1.0628073e-15
       4102.4873   3.0625256e-15
       4104.7745   3.3854638e-15
       4107.0617   3.2863976e-15
       4109.3489   5.1577443e-16
       4111.6361   4.6139632e-16
       4113.9233   2.8088861e-15
       4116.2105  -1.9994923e-16
       4118.4977   3.1475898e-17
       4120.7849   4.3866200e-16
       4123.0721   3.4831225e-15
       4125.3593  -1.8936255e-16
       4127.6465   1.4573664e-15
       4129.9337   3.9163212e-15
       4132.2209   2.6149042e-16
       4134.5082  -4.7418755e-16
       4136.7954   8.4680058e-16
       4139.0826   2.3892859e-15
       4141.3698   3.9794760e-15
       4143.6570   1.3467534e-15
       4145.9442   8.6358395e-16
       4148.2314   3.2104784e-15
       4150.5186   5.7487474e-15
       4152.8058   1.9281944e-15
       4155.0930   1.2546447e-15
       4157.3802   1.7752598e-15
       4159.6674  -7.5414959e-16
       4161.9546   8.9187465e-16
       4164.2418   3.3224788e-15
       4166.5290   1.5135321e-15
       4168.8162   2.2879771e-15
       4171.1034   5.5049782e-16
       4173.3906   8.4813312e-16
       4175.6778   9.4730975e-16
       4177.9650   4.2700224e-16
       4180.2522   1.2301761e-15
       4182.5394   3.1293484e-15
       4184.8267   3.1774621e-15
       4187.1139   1.9264438e-15
       4189.4011  -2.4000428e-16
       4191.6883   2.1042274e-15
       4193.9755   2.3469974e-15
       4196.2627   1.3398733e-15
       4198.5499   3.6008185e-16
       4200.8371  -2.7201872e-16
       4203.1243   9.0414852e-16
       4205.4115   3.4661160e-16
       4207.6987   1.5328849e-15
       4209.9859   1.9439347e-15
       4212.2731   2.0028719e-15
       4214.5603  -1.2356321e-15
       4216.8475   3.3416754e-15
       4219.1347   8.8311556e-15
       4221.4219   1.2258935e-15
       4223.7091   4.3112864e-16
       4225.9963  -4.6415079e-16
       4228.2835   2.2644708e-15
       4230.5707   1.4384346e-15
       4232.8579   3.1768610e-15
       4235.1452   3.2948786e-15
       4237.4324   1.3149090e-15
       4239.7196   9.5094246e-16
       4242.0068  -3.5803439e-17
       4244.2940   1.1073810e-15
       4246.5812  -7.9464397e-17
       4248.8684   2.6468240e-17
       4251.1556  -1.5039424e-15
       4253.4428   7.4122961e-16
       4255.7300   1.5450684e-15
       4258.0172   2.5125085e-15
       4260.3044   1.6466566e-15
       4262.5916   8.8643651e-16
       4264.8788   2.4011079e-15
       4267.1660   2.4160345e-15
       4269.4532  -9.2326321e-17
       4271.7404   1.0459056e-15
       4274.0276   1.8854096e-15
       4276.3148   3.5729331e-16
       4278.6020  -8.4405991e-17
       4280.8892  -9.4068132e-16
       4283.1764   1.9784728e-15
       4285.4636   1.3687028e-15
       4287.7509   3.4223404e-15
       4290.0381   7.4300496e-16
       4292.3253   3.7555070e-16
       4294.6125   2.0748524e-15
       4296.8997   2.8881455e-15
       4299.1869   2.6033083e-15
       4301.4741   1.1843276e-15
       4303.7613   7.8052874e-16
       4306.0485   1.1611410e-16
       4308.3357   1.1236545e-16
       4310.6229   1.8482117e-15
       4312.9101   5.3259570e-16
       4315.1973   1.1655044e-15
       4317.4845   2.6750023e-16
       4319.7717   2.7158868e-15
       4322.0589   2.3976233e-15
       4324.3461   4.0756398e-16
       4326.6333   1.3252333e-15
       4328.9205   1.2631094e-15
       4331.2077   1.3000953e-15
       4333.4949   2.8384606e-15
       4335.7821   2.0829727e-15
       4338.0694   1.2509997e-15
       4340.3566   4.1656047e-16
       4342.6438   2.2558825e-15
       4344.9310   1.7809474e-15
       4347.2182   1.2363524e-15
       4349.5054   7.2102888e-16
       4351.7926   1.4228820e-15
       4354.0798   3.8499854e-15
       4356.3670   1.1566214e-15
       4358.6542   1.3268134e-15
       4360.9414   3.2811576e-15
       4363.2286   2.1442694e-15
       4365.5158   5.3833456e-16
       4367.8030   1.4502184e-15
       4370.0902   1.9114619e-15
       4372.3774   4.6866690e-16
       4374.6646  -6.8549366e-17
       4376.9518   2.0291225e-15
       4379.2390  -3.4103632e-16
       4381.5262   5.5977625e-16
       4383.8134  -5.4671983e-17
       4386.1006   1.8418217e-15
       4388.3879   1.3551795e-15
       4390.6751   2.5590738e-15
       4392.9623   2.4415726e-15
       4395.2495   1.4154149e-15
       4397.5367   2.8377476e-15
       4399.8239   3.7213392e-15
       4402.1111   1.4800414e-15
       4404.3983   8.9257253e-16
       4406.6855   3.0769025e-15
       4408.9727   1.6220528e-15
       4411.2599   7.1739967e-16
       4413.5471   2.4090683e-15
       4415.8343  -1.3517359e-15
       4418.1215   2.1484903e-15
       4420.4087   9.5171916e-17
       4422.6959   1.6497434e-15
       4424.9831   1.1895423e-15
       4427.2703  -3.4818975e-16
       4429.5575   3.6101593e-15
       4431.8447   2.0152766e-15
       4434.1319   9.1023959e-16
       4436.4191   1.9581111e-15
       4438.7064   1.7575553e-15
       4440.9936  -8.9416748e-16
       4443.2808   1.5439024e-15
       4445.5680   1.1180379e-15
       4447.8552   3.8622129e-16
       4450.1424   4.1432184e-15
       4452.4296   2.4817779e-15
       4454.7168   3.6966891e-15
       4457.0040   8.0233941e-16
       4459.2912   2.4369993e-15
       4461.5784   2.8224121e-15
       4463.8656   1.9508166e-15
       4466.1528   7.7297304e-16
       4468.4400   2.1690231e-15
       4470.7272   1.3750504e-15
       4473.0144   2.5474993e-15
       4475.3016   3.6928105e-15
       4477.5888   1.3352022e-15
       4479.8760   2.7020149e-15
       4482.1632   1.2907501e-15
       4484.4504   1.9027706e-15
       4486.7376   3.0579317e-15
       4489.0249   2.4349832e-15
       4491.3121   2.7892365e-15
       4493.5993   2.5754581e-15
       4495.8865   2.8307612e-15
       4498.1737   3.2777453e-15
       4500.4609   2.5649857e-15
       4502.7481   3.8881578e-15
       4505.0353   3.6557728e-15
       4507.3225   3.9050129e-15
       4509.6097   2.2953432e-15
       4511.8969   1.3331900e-15
       4514.1841   6.9984493e-16
       4516.4713   1.3770418e-15
       4518.7585   2.2864693e-15
       4521.0457   3.9739206e-15
       4523.3329   3.5999351e-15
       4525.6201   3.3057368e-15
       4527.9073   2.2186556e-15
       4530.1945   2.3026240e-15
       4532.4817   2.1668367e-15
       4534.7689   4.2844954e-15
       4537.0561   2.9398601e-15
       4539.3433   4.6777297e-15
       4541.6306   2.6192394e-15
       4543.9178   2.3103115e-15
       4546.2050   1.5750252e-15
       4548.4922   2.3338708e-15
       4550.7794   7.8276397e-16
       4553.0666   1.9791185e-15
       4555.3538   1.7474451e-15
       4557.6410   1.7255191e-15
       4559.9282   3.4382645e-15
       4562.2154   4.1826425e-15
       4564.5026   8.3234264e-16
       4566.7898   2.0178851e-15
       4569.0770   1.4494866e-15
       4571.3642   2.2944043e-15
       4573.6514   2.3833307e-15
       4575.9386   3.1307157e-15
       4578.2258   3.7627964e-15
       4580.5130   2.8221262e-15
       4582.8002   1.4467525e-15
       4585.0874   2.8047638e-15
       4587.3746   4.1476026e-15
       4589.6618   1.6161189e-15
       4591.9491   1.7247720e-15
       4594.2363   1.0818021e-15
       4596.5235   2.6695174e-15
       4598.8107   2.6123629e-15
       4601.0979   3.7440014e-15
       4603.3851   2.5263455e-15
       4605.6723   3.2510699e-15
       4607.9595   4.6341819e-15
       4610.2467   2.8428540e-15
       4612.5339   8.3630467e-16
       4614.8211   4.0144135e-15
       4617.1083   3.5197818e-15
       4619.3955   2.6244298e-15
       4621.6827   2.6256231e-15
       4623.9699   2.7641297e-15
       4626.2571   2.9556317e-15
       4628.5443   1.9902502e-15
       4630.8315   2.4843381e-15
       4633.1187   2.4169756e-15
       4635.4059   4.5128300e-15
       4637.6931   2.0329355e-15
       4639.9803   3.5816888e-15
       4642.2676   2.9082816e-15
       4644.5548   5.1543111e-15
       4646.8420   4.4083135e-15
       4649.1292   3.7714413e-15
       4651.4164   1.3877624e-15
       4653.7036   1.5472916e-15
       4655.9908   3.6089595e-15
       4658.2780   2.9554504e-15
       4660.5652   3.5641928e-15
       4662.8524   2.1480216e-15
       4665.1396   1.2358351e-15
       4667.4268   2.1537333e-15
       4669.7140   2.9874105e-15
       4672.0012   3.6685658e-15
       4674.2884   2.1676548e-15
       4676.5756   8.8404686e-16
       4678.8628   3.8630286e-16
       4681.1500   2.4565672e-15
       4683.4372   3.6214638e-15
       4685.7244   2.4939595e-15
       4688.0116   1.9776979e-15
       4690.2988   2.5985307e-15
       4692.5861   9.3515564e-16
       4694.8733   6.5758361e-16
       4697.1605   2.6211605e-15
       4699.4477   1.9507546e-15
       4701.7349   1.1049299e-15
       4704.0221   2.3043915e-15
       4706.3093   3.5301933e-16
       4708.5965   2.7824349e-15
       4710.8837   4.4914314e-15
       4713.1709   1.3430889e-15
       4715.4581   2.0155226e-15
       4717.7453   1.8984886e-16
       4720.0325   2.6335055e-15
       4722.3197   2.8654827e-15
       4724.6069   3.5263381e-15
       4726.8941   2.1422286e-15
       4729.1813   1.2579097e-15
       4731.4685   2.0829666e-15
       4733.7557   1.8842559e-15
       4736.0429   1.2290217e-15
       4738.3301   9.0453001e-16
       4740.6173   2.5772593e-15
       4742.9046   1.4036904e-15
       4745.1918   2.8191802e-15
       4747.4790   5.3599584e-16
       4749.7662   5.4674826e-16
       4752.0534   4.0683568e-15
       4754.3406   7.4811351e-16
       4756.6278   1.0488587e-16
       4758.9150   2.8155769e-15
       4761.2022   3.6543852e-15
       4763.4894   7.2601775e-16
       4765.7766  -1.5973975e-16
       4768.0638   4.5776288e-15
       4770.3510   4.8463261e-15
       4772.6382   4.0905082e-15
       4774.9254   2.0440033e-15
       4777.2126   5.3197747e-15
       4779.4998   4.2436220e-15
       4781.7870  -3.3710052e-17
       4784.0742   2.0612953e-15
       4786.3614   2.3401088e-15
       4788.6486   8.6959921e-16
       4790.9358   1.3084532e-15
       4793.2230   1.9078152e-15
       4795.5103   6.1613465e-16
       4797.7975   2.4709544e-15
       4800.0847   2.4443740e-15
       4802.3719   5.5779619e-16
       4804.6591   3.8042221e-15
       4806.9463   1.7077504e-15
       4809.2335   1.9530843e-15
       4811.5207   2.2300695e-15
       4813.8079   4.1825489e-15
       4816.0951   4.8682894e-15
       4818.3823   1.1348568e-15
       4820.6695   8.2743263e-16
       4822.9567  -5.6676078e-17
       4825.2439   1.9985120e-15
       4827.5311   3.4788887e-15
       4829.8183   1.3368226e-15
       4832.1055   9.7185787e-16
       4834.3927   1.1054547e-15
       4836.6799   2.6731751e-15
       4838.9671   2.8097531e-15
       4841.2543   6.4589949e-16
       4843.5415   1.3216293e-16
       4845.8288   2.9254638e-15
       4848.1160   3.4135550e-15
       4850.4032   2.1554136e-15
       4852.6904   3.1544374e-15
       4854.9776   1.9291711e-15
       4857.2648   1.5858016e-15
       4859.5520   1.2486760e-15
       4861.8392   1.2275141e-15
       4864.1264   3.8846259e-15
       4866.4136   3.1735912e-15
       4868.7008   2.0139663e-15
       4870.9880   2.0747494e-15
       4873.2752  -2.8945982e-16
       4875.5624   2.2932922e-15
       4877.8496   1.9013833e-15
       4880.1368   2.0166079e-15
       4882.4240   1.4745905e-15
       4884.7112   2.2480426e-15
       4886.9984   7.7029716e-16
       4889.2856  -1.2686106e-15
       4891.5728   6.3637278e-17
       4893.8600   2.4650811e-15
       4896.1473   1.1855995e-15
       4898.4345   1.4191550e-15
       4900.7217   2.3658563e-15
       4903.0089   2.7511095e-15
       4905.2961   1.0284686e-15
       4907.5833   5.2456760e-16
       4909.8705   1.3891348e-15
       4912.1577   1.2367852e-15
       4914.4449   2.8687692e-15
       4916.7321   3.6379135e-15
       4919.0193   1.7391867e-15
       4921.3065   7.0011131e-16
       4923.5937   1.9166383e-15
       4925.8809   3.9061707e-15
       4928.1681   2.5310402e-15
       4930.4553   2.7485706e-15
       4932.7425   3.7487349e-15
       4935.0297   1.3789249e-15
       4937.3169   1.1748321e-15
       4939.6041   2.0659033e-15
       4941.8913   2.1940786e-15
       4944.1785   2.4046591e-16
       4946.4658   2.1015079e-15
       4948.7530   3.2762869e-15
       4951.0402   2.2152032e-15
       4953.3274   2.4571738e-15
       4955.6146   2.3742549e-15
       4957.9018   2.3850200e-15
       4960.1890   1.4976710e-15
       4962.4762   1.7780240e-15
       4964.7634   1.9872173e-15
       4967.0506   2.4415105e-15
       4969.3378   2.1166876e-15
       4971.6250   2.5367493e-15
       4973.9122   2.3550053e-15
       4976.1994   1.1628005e-15
       4978.4866   2.4032658e-15
       4980.7738   2.6321721e-15
       4983.0610   1.9600112e-15
       4985.3482   1.9134682e-15
       4987.6354   1.3196121e-15
       4989.9226   1.3891893e-15
       4992.2098   2.2811657e-15
       4994.4970   1.3675489e-15
       4996.7843   2.1202246e-15
       4999.0715   2.4194825e-15
       5001.3587   2.4407376e-15
       5003.6459   1.8050430e-15
       5005.9331   2.3165383e-15
       5008.2203   2.8324649e-15
       5010.5075   2.9873679e-15
       5012.7947   2.4534569e-15
       5015.0819   1.8627783e-15
       5017.3691   1.5277819e-16
       5019.6563   3.6769721e-16
       5021.9435   1.3419399e-15
       5024.2307   9.5865054e-16
       5026.5179   9.5650222e-17
       5028.8051   9.2742701e-16
       5031.0923   2.4898351e-15
       5033.3795   2.8106200e-15
       5035.6667   2.4039229e-15
       5037.9539   2.3809468e-15
       5040.2411   2.2215848e-15
       5042.5283   1.3027239e-15
       5044.8155   7.1938398e-16
       5047.1027   1.4439238e-15
       5049.3900   2.3516275e-15
       5051.6772   2.4686077e-15
       5053.9644   2.6941141e-15
       5056.2516   3.5492719e-15
       5058.5388   3.8117280e-15
       5060.8260   2.9333027e-15
       5063.1132   2.2348542e-15
       5065.4004   2.3078140e-15
       5067.6876   2.1487636e-15
       5069.9748   1.5065172e-15
       5072.2620   1.3606110e-15
       5074.5492   1.7634053e-15
       5076.8364   1.5991198e-15
       5079.1236   9.6605709e-16
       5081.4108   1.1436659e-15
       5083.6980   2.0216504e-15
       5085.9852   2.4630560e-15
       5088.2724   2.3377005e-15
       5090.5596   2.0922784e-15
       5092.8468   1.9987754e-15
       5095.1340   2.2634973e-15
       5097.4212   2.6958535e-15
       5099.7085   2.9410354e-15
       5101.9957   3.1175818e-15
       5104.2829   3.4394787e-15
       5106.5701   3.5334426e-15
       5108.8573   3.0249077e-15
       5111.1445   2.1668151e-15
       5113.4317   1.3641606e-15
       5115.7189   1.3991536e-15
       5118.0061   2.6251603e-15
       5120.2933   3.3734674e-15
       5122.5805   2.6335377e-15
       5124.8677   2.2567885e-15
       5127.1549   3.2285366e-15
       5129.4421   3.9119958e-15
       5131.7293   3.4356724e-15
       5134.0165   2.5368818e-15
       5136.3037   1.7685410e-15
       5138.5909   1.4045595e-15
       5140.8781   1.5301669e-15
       5143.1653   1.9359449e-15
       5145.4525   2.3901831e-15
       5147.7397   2.6694038e-15
       5150.0270   2.6795722e-15
       5152.3142   2.4355752e-15
       5154.6014   2.1834098e-15
       5156.8886   2.3139943e-15
       5159.1758   2.6400057e-15
       5161.4630   2.6881714e-15
       5163.7502   2.6244170e-15
       5166.0374   2.8272997e-15
       5168.3246   3.0557477e-15
       5170.6118   2.9441073e-15
       5172.8990   2.6267650e-15
       5175.1862   2.3460293e-15
       5177.4734   2.2301200e-15
       5179.7606   2.3551783e-15
       5182.0478   2.7515806e-15
       5184.3350   3.3113621e-15
       5186.6222   3.3949710e-15
       5188.9094   2.6717420e-15
       5191.1966   1.9024377e-15
       5193.4838   1.6752257e-15
       5195.7710   1.9691294e-15
       5198.0582   2.5600126e-15
       5200.3455   2.8177508e-15
       5202.6327   2.5982508e-15
       5204.9199   2.6436366e-15
       5207.2071   3.0619020e-15
       5209.4943   3.0675588e-15
       5211.7815   2.7827431e-15
       5214.0687   3.3307025e-15
       5216.3559   4.1453933e-15
       5218.6431   3.2580092e-15
       5220.9303   1.6205292e-15
       5223.2175   2.0130493e-15
       5225.5047   3.4591743e-15
       5227.7919   3.2074471e-15
       5230.0791   2.1432607e-15
       5232.3663   2.4006407e-15
       5234.6535   3.3284435e-15
       5236.9407   3.5831876e-15
       5239.2279   3.4543164e-15
       5241.5151   3.4981743e-15
       5243.8023   3.3570461e-15
       5246.0895   2.7168137e-15
       5248.3767   2.3060920e-15
       5250.6639   2.6829569e-15
       5252.9512   3.0898324e-15
       5255.2384   2.9836868e-15
       5257.5256   3.0080229e-15
       5259.8128   3.5272456e-15
       5262.1000   4.0496806e-15
       5264.3872   4.2159973e-15
       5266.6744   3.9252235e-15
       5268.9616   3.3531199e-15
       5271.2488   3.1866074e-15
       5273.5360   3.4733521e-15
       5275.8232   3.3404328e-15
       5278.1104   2.8531790e-15
       5280.3976   3.0661958e-15
       5282.6848   3.8530465e-15
       5284.9720   4.1595101e-15
       5287.2592   3.8963048e-15
       5289.5464   3.5789637e-15
       5291.8336   3.2924459e-15
       5294.1208   2.9336448e-15
       5296.4080   2.7070747e-15
       5298.6952   2.8780196e-15
       5300.9824   3.2593138e-15
       5303.2697   3.5389775e-15
       5305.5569   3.4576745e-15
       5307.8441   2.8687306e-15
       5310.1313   2.4925680e-15
       5312.4185   2.9610358e-15
       5314.7057   3.2701404e-15
       5316.9929   2.6121539e-15
       5319.2801   2.1371414e-15
       5321.5673   2.6489353e-15
       5323.8545   3.0941224e-15
       5326.1417   2.8624087e-15
       5328.4289   2.8368602e-15
       5330.7161   3.4309972e-15
       5333.0033   3.9996945e-15
       5335.2905   4.2247171e-15
       5337.5777   4.3398518e-15
       5339.8649   4.3943130e-15
       5342.1521   4.2517416e-15
       5344.4393   3.8056986e-15
       5346.7265   2.8990613e-15
       5349.0137   2.0187870e-15
       5351.3009   2.2050961e-15
       5353.5882   3.1080473e-15
       5355.8754   3.4657780e-15
       5358.1626   3.3146465e-15
       5360.4498   3.3428247e-15
       5362.7370   3.5416404e-15
       5365.0242   3.6661273e-15
       5367.3114   3.7381851e-15
       5369.5986   3.8306403e-15
       5371.8858   4.0810850e-15
       5374.1730   4.5817076e-15
       5376.4602   4.7025054e-15
       5378.7474   3.9330159e-15
       5381.0346   3.3284825e-15
       5383.3218   3.7595848e-15
       5385.6090   4.2574352e-15
       5387.8962   4.0291332e-15
       5390.1834   3.5129121e-15
       5392.4706   3.1250520e-15
       5394.7578   3.0555481e-15
       5397.0450   3.3051289e-15
       5399.3322   3.4187849e-15
       5401.6194   3.2398345e-15
       5403.9067   3.1963733e-15
       5406.1939   3.3305077e-15
       5408.4811   3.1318435e-15
       5410.7683   2.6557061e-15
       5413.0555   2.5778583e-15
       5415.3427   2.8142392e-15
       5417.6299   2.6334766e-15
       5419.9171   2.2346770e-15
       5422.2043   2.4121062e-15
       5424.4915   2.9970843e-15
       5426.7787   3.3300365e-15
       5429.0659   3.4738597e-15
       5431.3531   3.7673248e-15
       5433.6403   3.8479134e-15
       5435.9275   3.2307932e-15
       5438.2147   2.5632725e-15
       5440.5019   2.6284876e-15
       5442.7891   2.8068867e-15
       5445.0763   2.4172027e-15
       5447.3635   2.1726031e-15
       5449.6507   2.6913772e-15
       5451.9379   3.3341864e-15
       5454.2252   3.5448036e-15
       5456.5124   3.5420247e-15
       5458.7996   3.4607657e-15
       5461.0868   2.9865876e-15
       5463.3740   2.1864354e-15
       5465.6612   1.9637922e-15
       5467.9484   2.5863870e-15
       5470.2356   3.2238795e-15
       5472.5228   3.4199063e-15
       5474.8100   3.2417694e-15
       5477.0972   2.8501533e-15
       5479.3844   2.4991398e-15
       5481.6716   2.5098609e-15
       5483.9588   3.2878329e-15
       5486.2460   4.1989853e-15
       5488.5332   3.9005984e-15
       5490.8204   2.8740338e-15
       5493.1076   2.5537986e-15
       5495.3948   2.8498342e-15
       5497.6820   3.0653938e-15
       5499.9692   3.0730745e-15
       5502.2564   2.9167877e-15
       5504.5436   2.8038466e-15
       5506.8309   2.9611086e-15
       5509.1181   3.3104658e-15
       5511.4053   3.6919281e-15
       5513.6925   3.9228895e-15
       5515.9797   3.8609805e-15
       5518.2669   3.4658839e-15
       5520.5541   2.8539120e-15
       5522.8413   2.6644448e-15
       5525.1285   3.1586223e-15
       5527.4157   3.3861641e-15
       5529.7029   2.9323032e-15
       5531.9901   2.7499000e-15
       5534.2773   3.1650470e-15
       5536.5645   3.3508575e-15
       5538.8517   3.0468011e-15
       5541.1389   2.7746831e-15
       5543.4261   2.6652436e-15
       5545.7133   2.4304357e-15
       5548.0005   2.1482833e-15
       5550.2877   2.1964663e-15
       5552.5749   2.4776652e-15
       5554.8621   2.5670590e-15
       5557.1494   2.5394578e-15
       5559.4366   2.7269812e-15
       5561.7238   2.9106192e-15
       5564.0110   2.7037879e-15
       5566.2982   2.0473126e-15
       5568.5854   1.0319369e-15
       5570.8726   7.1117952e-16
       5573.1598   2.0925465e-15
       5575.4470   3.6027089e-15
       5577.7342   3.5413590e-15
       5580.0214   3.0171747e-15
       5582.3086   3.1832058e-15
       5584.5958   3.1442344e-15
       5586.8830   2.2819429e-15
       5589.1702   1.6690870e-15
       5591.4574   1.9745994e-15
       5593.7446   2.4668774e-15
       5596.0318   2.6335586e-15
       5598.3190   2.6049258e-15
       5600.6062   2.4515370e-15
       5602.8934   2.1437660e-15
       5605.1806   1.7616549e-15
       5607.4679   1.4842667e-15
       5609.7551   1.4474366e-15
       5612.0423   1.7641086e-15
       5614.3295   2.2030653e-15
       5616.6167   2.2127773e-15
       5618.9039   1.8864857e-15
       5621.1911   1.7896504e-15
       5623.4783   1.8425475e-15
       5625.7655   1.6159280e-15
       5628.0527   1.3979411e-15
       5630.3399   1.7337083e-15
       5632.6271   2.2713981e-15
       5634.9143   2.4052300e-15
       5637.2015   2.2649352e-15
       5639.4887   2.1504338e-15
       5641.7759   2.0163124e-15
       5644.0631   1.7906901e-15
       5646.3503   1.6388399e-15
       5648.6375   1.6808761e-15
       5650.9247   1.5896136e-15
       5653.2119   1.2085432e-15
       5655.4991   1.3214022e-15
       5657.7864   2.2352578e-15
       5660.0736   2.6303616e-15
       5662.3608   1.9184589e-15
       5664.6480   1.3851674e-15
       5666.9352   1.5986580e-15
       5669.2224   1.7261595e-15
       5671.5096   1.4913726e-15
       5673.7968   1.3877444e-15
       5676.0840   1.5756083e-15
       5678.3712   1.8868251e-15
       5680.6584   2.1823184e-15
       5682.9456   2.3422284e-15
       5685.2328   2.2841082e-15
       5687.5200   1.9471185e-15
       5689.8072   1.6580456e-15
       5692.0944   1.9462841e-15
       5694.3816   2.4789629e-15
       5696.6688   2.5681375e-15
       5698.9560   2.2791293e-15
       5701.2432   1.9435473e-15
       5703.5304   1.7114620e-15
       5705.8176   1.6769487e-15
       5708.1049   1.9989225e-15
       5710.3921   2.7198301e-15
       5712.6793   3.0667175e-15
       5714.9665   2.4561090e-15
       5717.2537   1.8590641e-15
       5719.5409   2.0729832e-15
       5721.8281   2.5342788e-15
       5724.1153   2.7347427e-15
       5726.4025   2.6703931e-15
       5728.6897   2.3579917e-15
       5730.9769   1.7669874e-15
       5733.2641   1.1686780e-15
       5735.5513   1.4085746e-15
       5737.8385   2.4864056e-15
       5740.1257   3.1427289e-15
       5742.4129   2.9989744e-15
       5744.7001   2.7049515e-15
       5746.9873   2.5601939e-15
       5749.2745   2.5907670e-15
       5751.5617   2.7184000e-15
       5753.8489   2.7453476e-15
       5756.1361   2.6595583e-15
       5758.4233   2.5757920e-15
       5760.7106   2.3944946e-15
       5762.9978   1.9477098e-15
       5765.2850   1.5545218e-15
       5767.5722   1.6478052e-15
       5769.8594   2.1928212e-15
       5772.1466   2.9820605e-15
       5774.4338   3.4750078e-15
       5776.7210   3.2136888e-15
       5779.0082   2.8449776e-15
       5781.2954   2.9899916e-15
       5783.5826   3.0088452e-15
       5785.8698   2.4448192e-15
       5788.1570   2.1197016e-15
       5790.4442   2.5624468e-15
       5792.7314   3.1927787e-15
       5795.0186   3.5634259e-15
       5797.3058   3.6605156e-15
       5799.5930   3.5607673e-15
       5801.8802   3.5462098e-15
       5804.1674   3.6438100e-15
       5806.4546   3.4499851e-15
       5808.7418   2.9443118e-15
       5811.0291   2.5431811e-15
       5813.3163   2.4473350e-15
       5815.6035   2.6616692e-15
       5817.8907   3.0614447e-15
       5820.1779   3.4377940e-15
       5822.4651   3.5050781e-15
       5824.7523   2.9560134e-15
       5827.0395   2.2634236e-15
       5829.3267   2.2205076e-15
       5831.6139   2.7075499e-15
       5833.9011   3.2695278e-15
       5836.1883   3.5776456e-15
       5838.4755   3.3946313e-15
       5840.7627   3.1575719e-15
       5843.0499   3.3570885e-15
       5845.3371   3.6198451e-15
       5847.6243   3.5575778e-15
       5849.9115   3.4651885e-15
       5852.1987   3.6088066e-15
       5854.4859   3.8619255e-15
       5856.7731   4.0945146e-15
       5859.0603   4.2848920e-15
       5861.3476   4.3650362e-15
       5863.6348   4.1232972e-15
       5865.9220   3.5974643e-15
       5868.2092   3.2989300e-15
       5870.4964   3.4088065e-15
       5872.7836   3.5701297e-15
       5875.0708   3.7005030e-15
       5877.3580   4.0716987e-15
       5879.6452   4.5456414e-15
       5881.9324   4.6082721e-15
       5884.2196   4.3212615e-15
       5886.5068   4.1623185e-15
       5888.7940   4.2061659e-15
       5891.0812   4.3090087e-15
       5893.3684   4.2582265e-15
       5895.6556   3.8172525e-15
       5897.9428   3.2765122e-15
       5900.2300   3.0942848e-15
       5902.5172   3.2137343e-15
       5904.8044   3.4220559e-15
       5907.0916   3.6411098e-15
       5909.3788   3.8092632e-15
       5911.6661   3.7652481e-15
       5913.9533   3.4304690e-15
       5916.2405   3.2635716e-15
       5918.5277   3.5453281e-15
       5920.8149   3.4528969e-15
       5923.1021   2.5773459e-15
       5925.3893   2.1145383e-15
       5927.6765   2.7043628e-15
       5929.9637   3.4626979e-15
       5932.2509   3.7790549e-15
       5934.5381   3.6027873e-15
       5936.8253   3.1872138e-15
       5939.1125   3.3428026e-15
       5941.3997   4.0754822e-15
       5943.6869   4.3106772e-15
       5945.9741   4.0373819e-15
       5948.2613   4.3091782e-15
       5950.5485   4.9021362e-15
       5952.8357   4.6430495e-15
       5955.1229   3.8126531e-15
       5957.4101   3.5300332e-15
       5959.6973   3.6962023e-15
       5961.9846   3.6602946e-15
       5964.2718   3.5311385e-15
       5966.5590   3.6527859e-15
       5968.8462   3.6956569e-15
       5971.1334   3.2382223e-15
       5973.4206   2.8336311e-15
       5975.7078   3.1035339e-15
       5977.9950   3.5734937e-15
       5980.2822   3.7062413e-15
       5982.5694   3.8070317e-15
       5984.8566   4.0869087e-15
       5987.1438   3.7983888e-15
       5989.4310   2.6738422e-15
       5991.7182   2.2235593e-15
       5994.0054   3.1635157e-15
       5996.2926   4.0027127e-15
       5998.5798   3.9094000e-15
       6000.8670   3.4505096e-15
       6003.1542   3.1324464e-15
       6005.4414   3.4664183e-15
       6007.7286   4.2117160e-15
       6010.0158   4.0700219e-15
       6012.3030   3.1011191e-15
       6014.5903   2.7260058e-15
       6016.8775   3.0714425e-15
       6019.1647   3.2879191e-15
       6021.4519   3.2337566e-15
       6023.7391   3.1713723e-15
       6026.0263   3.0180293e-15
       6028.3135   2.5649536e-15
       6030.6007   2.1914197e-15
       6032.8879   2.4367854e-15
       6035.1751   2.8982352e-15
       6037.4623   2.9566763e-15
       6039.7495   2.8629350e-15
       6042.0367   2.9996858e-15
       6044.3239   3.1368812e-15
       6046.6111   3.0446816e-15
       6048.8983   3.1323990e-15
       6051.1855   3.6473111e-15
       6053.4727   3.7898236e-15
       6055.7599   3.1061040e-15
       6058.0471   2.5700553e-15
       6060.3343   2.7387868e-15
       6062.6215   2.8449670e-15
       6064.9088   2.5773509e-15
       6067.1960   2.6546815e-15
       6069.4832   3.2108416e-15
       6071.7704   3.4605976e-15
       6074.0576   3.1721559e-15
       6076.3448   2.7782468e-15
       6078.6320   2.5521128e-15
       6080.9192   2.6415376e-15
       6083.2064   2.9320514e-15
       6085.4936   3.0802414e-15
       6087.7808   3.0117381e-15
       6090.0680   2.8270255e-15
       6092.3552   2.6379856e-15
       6094.6424   2.5622935e-15
       6096.9296   2.5964603e-15
       6099.2168   2.6834484e-15
       6101.5040   2.6509689e-15
       6103.7912   2.3399061e-15
       6106.0784   2.0389448e-15
       6108.3656   2.0879535e-15
       6110.6528   2.5391597e-15
       6112.9400   3.2895596e-15
       6115.2273   3.7130260e-15
       6117.5145   3.3619177e-15
       6119.8017   2.7960970e-15
       6122.0889   2.5371280e-15
       6124.3761   2.6211646e-15
       6126.6633   2.9558201e-15
       6128.9505   3.1872371e-15
       6131.2377   3.1304306e-15
       6133.5249   2.9881016e-15
       6135.8121   2.9523972e-15
       6138.0993   3.2159609e-15
       6140.3865   3.6656328e-15
       6142.6737   3.7538324e-15
       6144.9609   3.4738388e-15
       6147.2481   3.3904782e-15
       6149.5353   3.5268777e-15
       6151.8225   3.4775795e-15
       6154.1097   3.2741325e-15
       6156.3969   3.2140754e-15
       6158.6841   3.1963502e-15
       6160.9713   2.9415585e-15
       6163.2585   2.6728143e-15
       6165.5458   2.7739133e-15
       6167.8330   3.0867275e-15
       6170.1202   3.3038000e-15
       6172.4074   3.4838682e-15
       6174.6946   3.7322571e-15
       6176.9818   3.8405284e-15
       6179.2690   3.6227018e-15
       6181.5562   3.2776255e-15
       6183.8434   2.9991157e-15
       6186.1306   2.6463083e-15
       6188.4178   2.1766008e-15
       6190.7050   1.9808768e-15
       6192.9922   2.2560609e-15
       6195.2794   2.6766940e-15
       6197.5666   2.9706640e-15
       6199.8538   3.0089522e-15
       6202.1410   2.8420655e-15
       6204.4282   2.8595371e-15
       6206.7154   3.0732116e-15
       6209.0026   2.9371684e-15
       6211.2898   2.5413280e-15
       6213.5770   2.6562948e-15
       6215.8643   3.1788706e-15
       6218.1515   3.2948201e-15
       6220.4387   3.0867909e-15
       6222.7259   3.1907450e-15
       6225.0131   3.5308493e-15
       6227.3003   3.7038771e-15
       6229.5875   3.6257348e-15
       6231.8747   3.3353824e-15
       6234.1619   3.0552801e-15
       6236.4491   3.0410018e-15
       6238.7363   3.0445208e-15
       6241.0235   2.7589671e-15
       6243.3107   2.4313831e-15
       6245.5979   2.3535256e-15
       6247.8851   2.5204508e-15
       6250.1723   2.8465412e-15
       6252.4595   3.1174962e-15
       6254.7467   3.1559193e-15
       6257.0339   2.9645417e-15
       6259.3211   2.6172670e-15
       6261.6083   2.2770415e-15
       6263.8955   2.1154645e-15
       6266.1827   2.3223206e-15
       6268.4700   2.8317164e-15
       6270.7572   3.1702053e-15
       6273.0444   3.1243627e-15
       6275.3316   2.8189490e-15
       6277.6188   2.4837890e-15
       6279.9060   2.4896457e-15
       6282.1932   2.7160533e-15
       6284.4804   2.6347970e-15
       6286.7676   2.1813148e-15
       6289.0548   1.5694136e-15
       6291.3420   1.2472428e-15
       6293.6292   1.7680143e-15
       6295.9164   2.6206243e-15
       6298.2036   2.8894397e-15
       6300.4908   2.7933920e-15
       6302.7780   2.8749163e-15
       6305.0652   3.0414714e-15
       6307.3524   3.0850491e-15
       6309.6396   2.9172717e-15
       6311.9268   2.5230984e-15
       6314.2140   2.2471532e-15
       6316.5012   2.3640286e-15
       6318.7885   2.5827877e-15
       6321.0757   2.6592747e-15
       6323.3629   2.7508560e-15
       6325.6501   2.9601543e-15
       6327.9373   3.2129576e-15
       6330.2245   3.3982176e-15
       6332.5117   3.3163799e-15
       6334.7989   2.9387938e-15
       6337.0861   2.5287505e-15
       6339.3733   2.2375103e-15
       6341.6605   2.0411929e-15
       6343.9477   1.9673469e-15
       6346.2349   2.1122184e-15
       6348.5221   2.3264568e-15
       6350.8093   2.2258506e-15
       6353.0965   2.0751960e-15
       6355.3837   2.5838794e-15
       6357.6709   3.3212868e-15
       6359.9581   3.2912825e-15
       6362.2453   2.7760369e-15
       6364.5325   2.5474952e-15
       6366.8197   2.6269670e-15
       6369.1070   2.8055459e-15
       6371.3942   2.7721472e-15
       6373.6814   2.2696256e-15
       6375.9686   1.8256955e-15
       6378.2558   1.9901012e-15
       6380.5430   2.6069697e-15
       6382.8302   3.3442654e-15
       6385.1174   3.5235353e-15
       6387.4046   2.8121867e-15
       6389.6918   2.2443923e-15
       6391.9790   2.4835109e-15
       6394.2662   2.8276293e-15
       6396.5534   2.8541432e-15
       6398.8406   2.8845191e-15
       6401.1278   3.0458681e-15
       6403.4150   3.1800153e-15
       6405.7022   3.1353368e-15
       6407.9894   2.6996772e-15
       6410.2766   2.1164916e-15
       6412.5638   2.1421331e-15
       6414.8510   2.7883995e-15
       6417.1382   3.4300870e-15
       6419.4255   3.7966718e-15
       6421.7127   3.8538188e-15
       6423.9999   3.6876871e-15
       6426.2871   3.4719504e-15
       6428.5743   3.3486431e-15
       6430.8615   3.4331979e-15
       6433.1487   3.4800965e-15
       6435.4359   3.1587040e-15
       6437.7231   2.9090792e-15
       6440.0103   3.2495994e-15
       6442.2975   3.5860551e-15
       6444.5847   3.2806201e-15
       6446.8719   2.7641066e-15
       6449.1591   2.5220623e-15
       6451.4463   2.5756813e-15
       6453.7335   2.8306660e-15
       6456.0207   2.9310709e-15
       6458.3079   2.6750246e-15
       6460.5951   2.3516685e-15
       6462.8823   2.2311979e-15
       6465.1695   2.5112969e-15
       6467.4567   3.1095950e-15
       6469.7440   3.4494120e-15
       6472.0312   3.2990442e-15
       6474.3184   2.9098991e-15
       6476.6056   2.5521626e-15
       6478.8928   2.5515780e-15
       6481.1800   2.7814791e-15
       6483.4672   2.6906103e-15
       6485.7544   2.3308035e-15
       6488.0416   2.1509351e-15
       6490.3288   2.2876820e-15
       6492.6160   2.7272390e-15
       6494.9032   3.0661074e-15
       6497.1904   2.7627770e-15
       6499.4776   2.3063596e-15
       6501.7648   2.4634503e-15
       6504.0520   2.9760273e-15
       6506.3392   3.3483172e-15
       6508.6264   3.4022673e-15
       6510.9136   3.0838398e-15
       6513.2008   2.7636314e-15
       6515.4880   2.7728271e-15
       6517.7752   2.7647323e-15
       6520.0624   2.5202487e-15
       6522.3497   2.6796859e-15
       6524.6369   3.4914713e-15
       6526.9241   3.9249276e-15
       6529.2113   3.4671634e-15
       6531.4985   2.8827635e-15
       6533.7857   2.6417450e-15
       6536.0729   2.6357646e-15
       6538.3601   2.7626330e-15
       6540.6473   2.8876895e-15
       6542.9345   2.9592044e-15
       6545.2217   3.0655814e-15
       6547.5089   3.1331835e-15
       6549.7961   2.9381804e-15
       6552.0833   2.6110329e-15
       6554.3705   2.5348508e-15
       6556.6577   2.6409160e-15
       6558.9449   2.5921178e-15
       6561.2321   2.6257430e-15
       6563.5193   3.1972596e-15
       6565.8065   3.6523203e-15
       6568.0937   3.0834874e-15
       6570.3809   2.2653668e-15
       6572.6682   2.2703671e-15
       6574.9554   2.7048197e-15
       6577.2426   2.9492206e-15
       6579.5298   2.9689169e-15
       6581.8170   2.8128074e-15
       6584.1042   2.5444789e-15
       6586.3914   2.2598069e-15
       6588.6786   2.0778473e-15
       6590.9658   2.0559896e-15
       6593.2530   2.0590018e-15
       6595.5402   2.0316760e-15
       6597.8274   2.1820096e-15
       6600.1146   2.4884464e-15
       6602.4018   2.4518429e-15
       6604.6890   2.1102150e-15
       6606.9762   2.3110241e-15
       6609.2634   3.1085589e-15
       6611.5506   3.6672998e-15
       6613.8378   3.6706881e-15
       6616.1250   3.2333961e-15
       6618.4122   2.6905569e-15
       6620.6994   2.5619981e-15
       6622.9867   2.7914495e-15
       6625.2739   2.9825111e-15
       6627.5611   3.0112830e-15
       6629.8483   2.8757582e-15
       6632.1355   2.7233983e-15
       6634.4227   2.7496906e-15
       6636.7099   2.8925758e-15
       6638.9971   3.0207395e-15
       6641.2843   3.1058737e-15
       6643.5715   3.1414723e-15
       6645.8587   3.1213322e-15
       6648.1459   3.0568555e-15
       6650.4331   3.0234262e-15
       6652.7203   3.0644341e-15
       6655.0075   3.0866479e-15
       6657.2947   3.0096498e-15
       6659.5819   2.8034628e-15
       6661.8691   2.5219078e-15
       6664.1563   2.3929450e-15
       6666.4435   2.5405785e-15
       6668.7307   2.9094636e-15
       6671.0179   3.3293552e-15
       6673.3052   3.4568770e-15
       6675.5924   3.2641230e-15
       6677.8796   3.1170701e-15
       6680.1668   3.0752472e-15
       6682.4540   2.9090149e-15
       6684.7412   2.6772957e-15
       6687.0284   2.6288197e-15
       6689.3156   2.7343742e-15
       6691.6028   2.8245806e-15
       6693.8900   2.7811898e-15
       6696.1772   2.5060075e-15
       6698.4644   2.3489954e-15
       6700.7516   2.7697006e-15
       6703.0388   3.1787556e-15
       6705.3260   2.8242222e-15
       6707.6132   2.4167838e-15
       6709.9004   2.7709181e-15
       6712.1876   3.1255740e-15
       6714.4748   2.7527665e-15
       6716.7620   2.4367026e-15
       6719.0492   2.7848996e-15
       6721.3364   3.0122692e-15
       6723.6237   2.6351474e-15
       6725.9109   2.4399420e-15
       6728.1981   2.7832359e-15
       6730.4853   2.8390172e-15
       6732.7725   2.3149143e-15
       6735.0597   1.9766564e-15
       6737.3469   2.0877510e-15
       6739.6341   2.1347650e-15
       6741.9213   2.0573837e-15
       6744.2085   2.3330138e-15
       6746.4957   2.8634121e-15
       6748.7829   3.0374503e-15
       6751.0701   2.8248441e-15
       6753.3573   2.6021626e-15
       6755.6445   2.5377069e-15
       6757.9317   2.7000096e-15
       6760.2189   2.8557204e-15
       6762.5061   2.6302576e-15
       6764.7933   2.3521915e-15
       6767.0805   2.5565453e-15
       6769.3677   2.8723480e-15
       6771.6549   2.7503082e-15
       6773.9421   2.4373884e-15
       6776.2294   2.2944594e-15
       6778.5166   2.2563605e-15
       6780.8038   2.2123873e-15
       6783.0910   2.1013568e-15
       6785.3782   1.9214324e-15
       6787.6654   1.9465525e-15
       6789.9526   2.3071281e-15
       6792.2398   2.6146848e-15
       6794.5270   2.6483170e-15
       6796.8142   2.6810735e-15
       6799.1014   2.8259869e-15
       6801.3886   2.8789722e-15
       6803.6758   2.7209236e-15
       6805.9630   2.3267018e-15
       6808.2502   1.8478128e-15
       6810.5374   1.6641809e-15
       6812.8246   1.8107833e-15
       6815.1118   1.9804506e-15
       6817.3990   2.1055378e-15
       6819.6862   2.2847246e-15
       6821.9734   2.5089525e-15
       6824.2606   2.7342695e-15
       6826.5479   2.7729878e-15
       6828.8351   2.3884888e-15
       6831.1223   1.9401250e-15
       6833.4095   1.9640294e-15
       6835.6967   2.2505547e-15
       6837.9839   2.4012322e-15
       6840.2711   2.4636226e-15
       6842.5583   2.5551795e-15
       6844.8455   2.6064924e-15
       6847.1327   2.5559219e-15
       6849.4199   2.5124309e-15
       6851.7071   2.5415440e-15
       6853.9943   2.4489815e-15
       6856.2815   2.1183436e-15
       6858.5687   1.6693989e-15
       6860.8559   1.3187665e-15
       6863.1431   1.5480944e-15
       6865.4303   2.3546860e-15
       6867.7175   2.7701757e-15
       6870.0047   2.4483872e-15
       6872.2919   2.0194813e-15
       6874.5791   1.8775634e-15
       6876.8664   2.1697874e-15
       6879.1536   2.6701561e-15
       6881.4408   2.7518262e-15
       6883.7280   2.3958097e-15
       6886.0152   2.0366275e-15
       6888.3024   2.0001507e-15
       6890.5896   2.5500046e-15
       6892.8768   3.2877688e-15
       6895.1640   3.5047690e-15
       6897.4512   3.2885733e-15
       6899.7384   3.0349839e-15
       6902.0256   2.7496002e-15
       6904.3128   2.3676503e-15
       6906.6000   2.1251125e-15
       6908.8872   2.2476375e-15
       6911.1744   2.6331946e-15
       6913.4616   3.0865200e-15
       6915.7488   3.2815059e-15
       6918.0360   3.0097699e-15
       6920.3232   2.5491391e-15
       6922.6104   2.1942107e-15
       6924.8976   2.1459719e-15
       6927.1849   2.3838893e-15
       6929.4721   2.2565630e-15
       6931.7593   1.6783621e-15
       6934.0465   1.8371920e-15
       6936.3337   2.8881371e-15
       6938.6209   3.3001475e-15
       6940.9081   2.7222311e-15
       6943.1953   2.2594991e-15
       6945.4825   2.3103186e-15
       6947.7697   2.6489048e-15
       6950.0569   2.9622559e-15
       6952.3441   2.8146043e-15
       6954.6313   2.3523443e-15
       6956.9185   2.0963852e-15
       6959.2057   2.1345660e-15
       6961.4929   2.3251076e-15
       6963.7801   2.6386050e-15
       6966.0673   3.0674987e-15
       6968.3545   3.1256696e-15
       6970.6417   2.3210572e-15
       6972.9289   1.4807331e-15
       6975.2161   1.5506197e-15
       6977.5034   2.0102799e-15
       6979.7906   2.1924746e-15
       6982.0778   2.1272837e-15
       6984.3650   1.9497712e-15
       6986.6522   1.9177510e-15
       6988.9394   2.1865535e-15
       6991.2266   2.4689798e-15
       6993.5138   2.5845624e-15
       6995.8010   2.7472312e-15
       6998.0882   2.9881815e-15
       7000.3754   2.9321428e-15
       7002.6626   2.5286394e-15
       7004.9498   2.2314361e-15
       7007.2370   2.2485698e-15
       7009.5242   2.4961519e-15
       7011.8114   2.7829634e-15
       7014.0986   2.7784064e-15
       7016.3858   2.5587239e-15
       7018.6730   2.5340055e-15
       7020.9602   2.6870304e-15
       7023.2474   2.7567419e-15
       7025.5346   2.5638018e-15
       7027.8218   1.9764645e-15
       7030.1091   1.3851299e-15
       7032.3963   1.3428396e-15
       7034.6835   1.7000089e-15
       7036.9707   2.0887889e-15
       7039.2579   2.3168422e-15
       7041.5451   2.2701776e-15
       7043.8323   2.1271614e-15
       7046.1195   2.0966689e-15
       7048.4067   2.1563039e-15
       7050.6939   2.2480885e-15
       7052.9811   2.2916216e-15
       7055.2683   2.2481180e-15
       7057.5555   2.2570743e-15
       7059.8427   2.3826177e-15
       7062.1299   2.4695289e-15
       7064.4171   2.4155723e-15
       7066.7043   2.2131654e-15
       7068.9915   1.9710769e-15
       7071.2787   2.0188164e-15
       7073.5659   2.3173904e-15
       7075.8531   2.3116997e-15
       7078.1403   2.0155287e-15
       7080.4276   2.0450158e-15
       7082.7148   2.3531125e-15
       7085.0020   2.3739095e-15
       7087.2892   2.1456597e-15
       7089.5764   2.0512922e-15
       7091.8636   2.2347863e-15
       7094.1508   2.7330202e-15
       7096.4380   3.0779405e-15
       7098.7252   2.6559075e-15
       7101.0124   1.9597133e-15
       7103.2996   1.7625402e-15
       7105.5868   1.9240368e-15
       7107.8740   2.1043199e-15
       7110.1612   2.2185945e-15
       7112.4484   2.2309918e-15
       7114.7356   2.1990079e-15
       7117.0228   2.1981270e-15
       7119.3100   2.3224535e-15
       7121.5972   2.5591325e-15
       7123.8844   2.4742764e-15
       7126.1716   1.9288657e-15
       7128.4588   1.6476081e-15
       7130.7461   1.9572299e-15
       7133.0333   2.2779294e-15
       7135.3205   2.3249083e-15
       7137.6077   2.3245916e-15
       7139.8949   2.3746959e-15
       7142.1821   2.4356944e-15
       7144.4693   2.4751881e-15
       7146.7565   2.4383663e-15
       7149.0437   2.3863580e-15
       7151.3309   2.4820278e-15
       7153.6181   2.6601736e-15
       7155.9053   2.7117676e-15
       7158.1925   2.6297624e-15
       7160.4797   2.5085673e-15
       7162.7669   2.4033213e-15
       7165.0541   2.3497454e-15
       7167.3413   2.3257137e-15
       7169.6285   2.2921184e-15
       7171.9157   2.0863712e-15
       7174.2029   1.5871996e-15
       7176.4901   1.3307854e-15
       7178.7773   1.7809607e-15
       7181.0646   2.2472828e-15
       7183.3518   2.1118778e-15
       7185.6390   1.8592428e-15
       7187.9262   1.8836248e-15
       7190.2134   1.8303486e-15
       7192.5006   1.5560650e-15
       7194.7878   1.6156346e-15
       7197.0750   2.1694287e-15
       7199.3622   2.4959986e-15
       7201.6494   2.3338886e-15
       7203.9366   2.2357540e-15
       7206.2238   2.3716776e-15
       7208.5110   2.4023779e-15
       7210.7982   2.2789171e-15
       7213.0854   2.2228047e-15
       7215.3726   2.3155669e-15
       7217.6598   2.5474128e-15
       7219.9470   2.7623276e-15
       7222.2342   2.7098770e-15
       7224.5214   2.4468477e-15
       7226.8086   2.1951610e-15
       7229.0958   2.0983632e-15
       7231.3831   2.2458388e-15
       7233.6703   2.6034039e-15
       7235.9575   3.0677939e-15
       7238.2447   3.3490099e-15
       7240.5319   3.1827861e-15
       7242.8191   2.7890832e-15
       7245.1063   2.4656628e-15
       7247.3935   2.2584135e-15
       7249.6807   2.1878440e-15
       7251.9679   2.3650267e-15
       7254.2551   2.7996521e-15
       7256.5423   3.2159647e-15
       7258.8295   3.3896554e-15
       7261.1167   3.2953576e-15
       7263.4039   2.9852316e-15
       7265.6911   2.5974179e-15
       7267.9783   2.3467315e-15
       7270.2655   2.6083342e-15
       7272.5527   3.2285291e-15
       7274.8399   3.2921590e-15
       7277.1271   2.7707995e-15
       7279.4143   2.6147075e-15
       7281.7015   2.9174770e-15
       7283.9888   3.0879011e-15
       7286.2760   2.9238836e-15
       7288.5632   2.4297887e-15
       7290.8504   2.0053491e-15
       7293.1376   2.2757547e-15
       7295.4248   2.6964080e-15
       7297.7120   2.2805471e-15
       7299.9992   1.6706789e-15
       7302.2864   1.9274425e-15
       7304.5736   2.3918647e-15
       7306.8608   2.1439638e-15
       7309.1480   1.8419370e-15
       7311.4352   2.2284180e-15
       7313.7224   2.7675113e-15
       7316.0096   2.8981678e-15
       7318.2968   2.7541486e-15
       7320.5840   2.5161293e-15
       7322.8712   2.2749453e-15
       7325.1584   2.1112378e-15
       7327.4456   2.0414111e-15
       7329.7328   2.0573446e-15
       7332.0200   2.1147503e-15
       7334.3073   2.2030538e-15
       7336.5945   2.3981949e-15
       7338.8817   2.6463611e-15
       7341.1689   2.7292036e-15
       7343.4561   2.5593502e-15
       7345.7433   2.1497288e-15
       7348.0305   1.8064202e-15
       7350.3177   2.1217798e-15
       7352.6049   2.7436317e-15
       7354.8921   2.6762597e-15
       7357.1793   2.0750183e-15
       7359.4665   1.7008856e-15
       7361.7537   1.6873190e-15
       7364.0409   1.9083739e-15
       7366.3281   2.2180825e-15
       7368.6153   2.4457706e-15
       7370.9025   2.6279260e-15
       7373.1897   2.8429268e-15
       7375.4769   2.9410817e-15
       7377.7641   2.7889900e-15
       7380.0513   2.5009535e-15
       7382.3385   2.2448619e-15
       7384.6258   2.3053842e-15
       7386.9130   2.7894282e-15
       7389.2002   3.1359103e-15
       7391.4874   2.9905678e-15
       7393.7746   2.7536446e-15
       7396.0618   2.6781775e-15
       7398.3490   2.5853460e-15
       7400.6362   2.4356741e-15
       7402.9234   2.4370343e-15
       7405.2106   2.6037437e-15
       7407.4978   2.6946853e-15
       7409.7850   2.6188846e-15
       7412.0722   2.4549584e-15
       7414.3594   2.2489773e-15
       7416.6466   2.0098828e-15
       7418.9338   1.8858806e-15
       7421.2210   2.1123316e-15
       7423.5082   2.4873788e-15
       7425.7954   2.5818861e-15
       7428.0826   2.3745929e-15
       7430.3698   2.0395579e-15
       7432.6570   1.6846435e-15
       7434.9443   1.3981337e-15
       7437.2315   1.4677986e-15
       7439.5187   2.1235512e-15
       7441.8059   2.6219637e-15
       7444.0931   2.2553085e-15
       7446.3803   1.9599318e-15
       7448.6675   2.5654142e-15
       7450.9547   3.1763842e-15
       7453.2419   3.0063137e-15
       7455.5291   2.2466980e-15
       7457.8163   1.2873744e-15
       7460.1035   9.1791032e-16
       7462.3907   1.4358246e-15
       7464.6779   1.9009345e-15
       7466.9651   1.9006699e-15
       7469.2523   2.1174033e-15
       7471.5395   2.6442675e-15
       7473.8267   2.7208712e-15
       7476.1139   2.2945468e-15
       7478.4011   2.0994014e-15
       7480.6883   2.2143763e-15
       7482.9755   2.1490015e-15
       7485.2628   1.8970385e-15
       7487.5500   1.7705607e-15
       7489.8372   1.7545614e-15
       7492.1244   1.6686736e-15
       7494.4116   1.5810099e-15
       7496.6988   1.6494441e-15
       7498.9860   1.8069878e-15
       7501.2732   1.9191370e-15
       7503.5604   1.9847700e-15
       7505.8476   2.0304859e-15
       7508.1348   2.0889137e-15
       7510.4220   2.1707806e-15
       7512.7092   2.0108200e-15
       7514.9964   1.4489735e-15
       7517.2836   1.0067091e-15
       7519.5708   1.0993092e-15
       7521.8580   1.4751638e-15
       7524.1452   1.8660175e-15
       7526.4324   2.1455596e-15
       7528.7196   2.2475094e-15
       7531.0068   2.2936357e-15
       7533.2940   2.2773166e-15
       7535.5812   1.8579048e-15
       7537.8685   1.1843021e-15
       7540.1557   1.1676870e-15
       7542.4429   1.7758721e-15
       7544.7301   1.8475451e-15
       7547.0173   1.3622349e-15
       7549.3045   1.3217577e-15
       7551.5917   1.7766733e-15
       7553.8789   2.1396940e-15
       7556.1661   2.2039929e-15
       7558.4533   1.9667104e-15
       7560.7405   1.5366698e-15
       7563.0277   1.0934944e-15
       7565.3149   8.8695629e-16
       7567.6021   1.1367900e-15
       7569.8893   1.5643534e-15
       7572.1765   1.7829513e-15
       7574.4637   1.7750328e-15
       7576.7509   1.6265941e-15
       7579.0381   1.6154328e-15
       7581.3253   1.9243587e-15
       7583.6125   2.0133778e-15
       7585.8997   1.5073385e-15
       7588.1870   9.5073902e-16
       7590.4742   7.9686676e-16
       7592.7614   1.0595576e-15
       7595.0486   1.5517188e-15
       7597.3358   1.6195016e-15
       7599.6230   1.1092464e-15
       7601.9102   8.9139270e-16
       7604.1974   1.2024557e-15
       7606.4846   1.2800489e-15
       7608.7718   1.0216729e-15
       7611.0590   1.1006001e-15
       7613.3462   1.5095063e-15
       7615.6334   1.6290153e-15
       7617.9206   1.4876042e-15
       7620.2078   1.5873245e-15
       7622.4950   1.7867613e-15
       7624.7822   1.5704908e-15
       7627.0694   1.4238490e-15
       7629.3566   2.2270152e-15
       7631.6438   3.1394637e-15
       7633.9310   2.8406655e-15
       7636.2182   2.0635669e-15
       7638.5055   1.9747380e-15
       7640.7927   2.2403454e-15
       7643.0799   2.2950774e-15
       7645.3671   2.1370459e-15
       7647.6543   1.8602919e-15
       7649.9415   1.6977171e-15
       7652.2287   1.8140811e-15
       7654.5159   2.0055885e-15
       7656.8031   2.0869114e-15
       7659.0903   2.0620332e-15
       7661.3775   1.9308755e-15
       7663.6647   1.6109559e-15
       7665.9519   1.2343932e-15
       7668.2391   1.3652356e-15
       7670.5263   2.0251189e-15
       7672.8135   2.3925213e-15
       7675.1007   2.2719269e-15
       7677.3879   2.2323905e-15
       7679.6751   2.3808119e-15
       7681.9623   2.4215655e-15
       7684.2495   2.3156508e-15
       7686.5367   2.1722596e-15
       7688.8240   2.1599493e-15
       7691.1112   2.4798453e-15
       7693.3984   2.9089318e-15
       7695.6856   3.0518509e-15
       7697.9728   2.7796608e-15
       7700.2600   2.0964253e-15
       7702.5472   1.5850674e-15
       7704.8344   1.8808588e-15
       7707.1216   2.2572581e-15
       7709.4088   1.8850446e-15
       7711.6960   1.5708809e-15
       7713.9832   2.0941738e-15
       7716.2704   2.6908263e-15
       7718.5576   2.6824139e-15
       7720.8448   2.4137952e-15
       7723.1320   2.2338297e-15
       7725.4192   2.2844860e-15
       7727.7064   2.5558595e-15
       7729.9936   2.6324089e-15
       7732.2808   2.3701616e-15
       7734.5680   2.1946412e-15
       7736.8552   2.2964513e-15
       7739.1425   2.5355605e-15
       7741.4297   2.6965979e-15
       7743.7169   2.3832183e-15
       7746.0041   1.9485783e-15
       7748.2913   2.5312716e-15
       7750.5785   3.7314192e-15
       7752.8657   3.9737254e-15
       7755.1529   3.4107903e-15
       7757.4401   3.2133580e-15
       7759.7273   3.2477525e-15
       7762.0145   2.8313290e-15
       7764.3017   2.1784670e-15
       7766.5889   1.7867427e-15
       7768.8761   1.5878969e-15
       7771.1633   1.3827925e-15
       7773.4505   1.5209133e-15
       7775.7377   2.3069960e-15
       7778.0249   2.9647484e-15
       7780.3121   2.7859040e-15
       7782.5993   2.3219617e-15
       7784.8865   2.1612342e-15
       7787.1737   2.3809425e-15
       7789.4609   2.8911556e-15
       7791.7482   3.1997619e-15
       7794.0354   3.0214303e-15
       7796.3226   2.6764811e-15
       7798.6098   2.4166489e-15
       7800.8970   2.2955078e-15
       7803.1842   2.3373877e-15
       7805.4714   2.5194474e-15
       7807.7586   2.7166830e-15
       7810.0458   2.6887887e-15
       7812.3330   2.4589021e-15
       7814.6202   2.2755109e-15
       7816.9074   2.3818779e-15
       7819.1946   3.0517484e-15
       7821.4818   3.7106958e-15
       7823.7690   3.2702426e-15
       7826.0562   2.1712125e-15
       7828.3434   1.5913858e-15
       7830.6306   1.1903122e-15
       7832.9178   1.4130221e-16
       7835.2050  -7.8163390e-16
       7837.4922  -5.2338104e-16
       7839.7794   1.9606062e-16
       7842.0667   4.2167112e-16
       7844.3539   6.3016027e-16
       7846.6411   1.3536654e-15
       7848.9283   2.2090466e-15
       7851.2155   2.7750651e-15
       7853.5027   2.8208327e-15
       7855.7899   2.3332563e-15
       7858.0771   1.9147244e-15
       7860.3643   1.9526292e-15
       7862.6515   2.1576495e-15
       7864.9387   2.3152653e-15
       7867.2259   2.4356056e-15
       7869.5131   2.4758598e-15
       7871.8003   2.3060188e-15
       7874.0875   2.0428790e-15
       7876.3747   2.1438448e-15
       7878.6619   2.4873193e-15
       7880.9491   2.3412162e-15
       7883.2363   1.8678376e-15
       7885.5235   1.9230292e-15
       7887.8107   2.4112074e-15
       7890.0979   2.6753897e-15
       7892.3852   2.6198248e-15
       7894.6724   2.4097679e-15
       7896.9596   2.1940748e-15
       7899.2468   2.1209208e-15
       7901.5340   2.1726037e-15
       7903.8212   2.2720468e-15
       7906.1084   2.2566890e-15
       7908.3956   2.0011403e-15
       7910.6828   1.9670370e-15
       7912.9700   2.5238928e-15
       7915.2572   2.8598412e-15
       7917.5444   2.3618699e-15
       7919.8316   1.9530863e-15
       7922.1188   2.2703052e-15
       7924.4060   2.5332733e-15
       7926.6932   2.2626164e-15
       7928.9804   1.9365928e-15
       7931.2676   1.8502129e-15
       7933.5548   1.8890419e-15
       7935.8420   1.9993699e-15
       7938.1292   2.2137854e-15
       7940.4164   2.4720238e-15
       7942.7037   2.6133262e-15
       7944.9909   2.5972861e-15
       7947.2781   2.5178013e-15
       7949.5653   2.3658514e-15
       7951.8525   2.0478932e-15
       7954.1397   1.7241215e-15
       7956.4269   1.6905699e-15
       7958.7141   1.9652845e-15
       7961.0013   2.4228703e-15
       7963.2885   2.7789321e-15
       7965.5757   2.7103672e-15
       7967.8629   2.4899186e-15
       7970.1501   2.5408642e-15
       7972.4373   2.5037717e-15
       7974.7245   1.9654905e-15
       7977.0117   1.5650632e-15
       7979.2989   1.9184010e-15
       7981.5861   2.5037913e-15
       7983.8733   2.7910783e-15
       7986.1605   2.9716672e-15
       7988.4477   3.1634632e-15
       7990.7349   3.0281980e-15
       7993.0222   2.4184055e-15
       7995.3094   1.6133366e-15
       7997.5966   9.8399495e-16
       7999.8838   1.0797242e-15
       8002.1710   1.9221046e-15
       8004.4582   2.6963083e-15
       8006.7454   2.9168867e-15
       8009.0326   2.5287593e-15
       8011.3198   1.8283816e-15
       8013.6070   1.4953731e-15
       8015.8942   1.6809169e-15
       8018.1814   2.0962735e-15
       8020.4686   2.4220520e-15
       8022.7558   2.3106773e-15
       8025.0430   1.9185281e-15
       8027.3302   1.6764382e-15
       8029.6174   1.6087345e-15
       8031.9046   1.5668003e-15
       8034.1918   1.7173357e-15
       8036.4790   2.2544616e-15
       8038.7662   2.5027390e-15
       8041.0534   1.7793056e-15
       8043.3406   1.0445103e-15
       8045.6279   1.2662512e-15
       8047.9151   1.5446867e-15
       8050.2023   1.0737267e-15
       8052.4895   6.4999742e-16
       8054.7767   8.4314631e-16
       8057.0639   9.2350118e-16
       8059.3511   5.2153614e-16
       8061.6383   4.0020029e-16
       8063.9255   9.3257309e-16
       8066.2127   1.6867122e-15
       8068.4999   2.2172179e-15
       8070.7871   1.9914336e-15
       8073.0743   1.2123891e-15
       8075.3615   1.1384332e-15
       8077.6487   1.8196221e-15
       8079.9359   2.0041947e-15
       8082.2231   1.5791920e-15
       8084.5103   1.3497050e-15
       8086.7975   1.3646195e-15
       8089.0847   1.2016541e-15
       8091.3719   1.0813601e-15
       8093.6591   1.5172650e-15
       8095.9464   1.9664110e-15
       8098.2336   1.5437261e-15
       8100.5208   8.0649977e-16
       8102.8080   6.7839891e-16
       8105.0952   1.0294630e-15
       8107.3824   1.4710406e-15
       8109.6696   1.6450190e-15
       8111.9568   1.2999440e-15
       8114.2440   8.7255656e-16
       8116.5312   7.7424197e-16
       8118.8184   6.9798230e-16
       8121.1056   4.4984130e-16
       8123.3928   5.4704236e-16
       8125.6800   1.1704769e-15
       8127.9672   1.4640283e-15
       8130.2544   1.1031145e-15
       8132.5416   1.0247384e-15
       8134.8288   1.5018302e-15
       8137.1160   1.6250511e-15
       8139.4032   1.1675361e-15
       8141.6904   8.1243708e-16
       8143.9776   7.3573441e-16
       8146.2649   5.9555100e-16
       8148.5521   4.0858527e-16
       8150.8393   4.5620548e-16
       8153.1265   7.3358884e-16
       8155.4137   1.0513920e-15
       8157.7009   1.3579848e-15
       8159.9881   1.6784518e-15
       8162.2753   1.7962103e-15
       8164.5625   1.4380619e-15
       8166.8497   9.8615128e-16
       8169.1369   9.8086964e-16
       8171.4241   1.1578185e-15
       8173.7113   1.1083103e-15
       8175.9985   1.0968471e-15
       8178.2857   1.3984395e-15
       8180.5729   1.6686901e-15
       8182.8601   1.5777768e-15
       8185.1473   1.0973083e-15
       8187.4345   4.0083815e-16
       8189.7217   3.3672241e-16
       8192.0089   1.2078766e-15
       8194.2961   1.6463530e-15
       8196.5834   1.0237791e-15
       8198.8706   4.7844561e-16
       8201.1578   6.2109593e-16
       8203.4450   1.1601504e-15
       8205.7322   1.6863950e-15
       8208.0194   1.5467650e-15
       8210.3066   8.3436359e-16
       8212.5938   4.9954882e-16
       8214.8810   7.2472932e-16
       8217.1682   1.0363291e-15
       8219.4554   1.2786214e-15
       8221.7426   1.4872758e-15
       8224.0298   1.5798866e-15
       8226.3170   1.4313467e-15
       8228.6042   1.2643775e-15
       8230.8914   1.4346501e-15
       8233.1786   1.5099808e-15
       8235.4658   8.9312038e-16
       8237.7530   3.2327159e-16
       8240.0402   7.0012511e-16
       8242.3274   1.4756010e-15
       8244.6146   1.9167879e-15
       8246.9019   1.9365868e-15
       8249.1891   1.6182243e-15
       8251.4763   1.4027053e-15
       8253.7635   1.6078125e-15
       8256.0507   1.9335241e-15
       8258.3379   2.0737785e-15
       8260.6251   1.8312784e-15
       8262.9123   1.2230444e-15
       8265.1995   7.3825972e-16
       8267.4867   6.1907963e-16
       8269.7739   6.3277112e-16
       8272.0611   6.5399323e-16
       8274.3483   6.5598862e-16
       8276.6355   8.0710190e-16
       8278.9227   1.6216340e-15
       8281.2099   2.4790901e-15
       8283.4971   1.6976519e-15
       8285.7843   7.4563254e-17
       8288.0715   1.0927285e-16
       8290.3587   1.3141773e-15
       8292.6459   1.6239279e-15
       8294.9331   1.2964523e-15
       8297.2203   1.4910765e-15
       8299.5076   1.8823842e-15
       8301.7948   1.7691879e-15
       8304.0820   1.5419516e-15
       8306.3692   1.7534822e-15
       8308.6564   2.0918574e-15
       8310.9436   2.1505958e-15
       8313.2308   1.9410700e-15
       8315.5180   1.5685488e-15
       8317.8052   1.3165987e-15
       8320.0924   1.3582733e-15
       8322.3796   1.3341672e-15
       8324.6668   1.0346971e-15
       8326.9540   8.1505768e-16
       8329.2412   8.6650842e-16
       8331.5284   9.6541306e-16
       8333.8156   9.9340366e-16
       8336.1028   1.0099080e-15
       8338.3900   1.0842924e-15
       8340.6772   1.3677243e-15
       8342.9644   1.6569279e-15
       8345.2516   1.2576748e-15
       8347.5388   6.0157578e-16
       8349.8261   1.1666517e-15
       8352.1133   2.4476457e-15
       8354.4005   2.5708944e-15
       8356.6877   1.7580476e-15
       8358.9749   1.3515102e-15
       8361.2621   1.4050399e-15
       8363.5493   1.4533473e-15
       8365.8365   1.5820451e-15
       8368.1237   1.9840959e-15
       8370.4109   2.3564348e-15
       8372.6981   2.3391778e-15
       8374.9853   2.0410062e-15
       8377.2725   1.6794439e-15
       8379.5597   1.4367437e-15
       8381.8469   1.4487960e-15
       8384.1341   1.7051829e-15
       8386.4213   2.0887416e-15
       8388.7085   2.2693869e-15
       8390.9957   1.9938431e-15
       8393.2829   1.1442386e-15
       8395.5701   2.2105137e-17
       8397.8573  -9.6416276e-17
       8400.1446   1.0660135e-15
       8402.4318   1.8791056e-15
       8404.7190   1.8111176e-15
       8407.0062   2.0032155e-15
       8409.2934   2.6243970e-15
       8411.5806   2.7648583e-15
       8413.8678   2.4077314e-15
       8416.1550   2.2730843e-15
       8418.4422   2.4620271e-15
       8420.7294   2.6903130e-15
       8423.0166   2.6879089e-15
       8425.3038   2.1783149e-15
       8427.5910   1.6091550e-15
       8429.8782   1.7124311e-15
       8432.1654   2.2896696e-15
       8434.4526   2.8272093e-15
       8436.7398   3.0931504e-15
       8439.0270   2.9688765e-15
       8441.3142   2.8728532e-15
       8443.6014   3.2108025e-15
       8445.8886   3.2588157e-15
       8448.1758   2.4368324e-15
       8450.4631   1.7552045e-15
       8452.7503   2.0069352e-15
       8455.0375   2.5044603e-15
       8457.3247   2.6871354e-15
       8459.6119   2.7700564e-15
       8461.8991   2.8259665e-15
       8464.1863   2.4614034e-15
       8466.4735   1.8061161e-15
       8468.7607   2.0209044e-15
       8471.0479   3.1280658e-15
       8473.3351   3.4207169e-15
       8475.6223   2.6419874e-15
       8477.9095   2.2214739e-15
       8480.1967   2.5008982e-15
       8482.4839   2.8771411e-15
       8484.7711   3.1505794e-15
       8487.0583   3.3719083e-15
       8489.3455   3.4096832e-15
       8491.6327   3.0628122e-15
       8493.9199   2.6853314e-15
       8496.2071   2.8319860e-15
       8498.4943   3.2924538e-15
       8500.7816   3.6099957e-15
       8503.0688   3.3931526e-15
       8505.3560   2.3942263e-15
       8507.6432   1.6931059e-15
       8509.9304   2.3407782e-15
       8512.2176   3.1263818e-15
       8514.5048   2.8582630e-15
       8516.7920   2.4274887e-15
       8519.0792   2.6189260e-15
       8521.3664   2.8649976e-15
       8523.6536   2.7652062e-15
       8525.9408   2.6710725e-15
       8528.2280   2.7913295e-15
       8530.5152   2.9584352e-15
       8532.8024   3.0777583e-15
       8535.0896   3.1763538e-15
       8537.3768   3.2955639e-15
       8539.6640   3.5503623e-15
       8541.9512   3.7900934e-15
       8544.2384   3.5142794e-15
       8546.5256   2.9057717e-15
       8548.8128   2.7558828e-15
       8551.1000   3.2506966e-15
       8553.3873   4.1592641e-15
       8555.6745   4.9002462e-15
       8557.9617   4.7019747e-15
       8560.2489   3.8777291e-15
       8562.5361   3.2416435e-15
       8564.8233   3.0228159e-15
       8567.1105   3.2136606e-15
       8569.3977   3.4219238e-15
       8571.6849   3.1971793e-15
       8573.9721   2.9083467e-15
       8576.2593   3.0134277e-15
       8578.5465   3.2906904e-15
       8580.8337   3.4557600e-15
       8583.1209   3.4871644e-15
       8585.4081   3.3939622e-15
       8587.6953   3.1349536e-15
       8589.9825   2.7922421e-15
       8592.2697   2.8334484e-15
       8594.5569   3.4050323e-15
       8596.8441   3.8443502e-15
       8599.1313   3.8198124e-15
       8601.4185   3.6969856e-15
       8603.7058   3.6567908e-15
       8605.9930   3.5682580e-15
       8608.2802   3.5163610e-15
       8610.5674   3.8625040e-15
       8612.8546   4.3693319e-15
       8615.1418   4.2092410e-15
       8617.4290   3.5535031e-15
       8619.7162   3.3609633e-15
       8622.0034   3.3535544e-15
       8624.2906   2.5240062e-15
       8626.5778   1.6547101e-15
       8628.8650   2.2670696e-15
       8631.1522   3.4321978e-15
       8633.4394   3.4524097e-15
       8635.7266   3.1154838e-15
       8638.0138   3.7169866e-15
       8640.3010   4.4129489e-15
       8642.5882   4.1487012e-15
       8644.8754   3.4308442e-15
       8647.1626   2.9329628e-15
       8649.4498   2.9121027e-15
       8651.7370   3.4186822e-15
       8654.0243   3.8544323e-15
       8656.3115   3.7947200e-15
       8658.5987   3.6335200e-15
       8660.8859   3.6139579e-15
       8663.1731   3.4791349e-15
       8665.4603   3.1316463e-15
       8667.7475   2.7054946e-15
       8670.0347   2.4880626e-15
       8672.3219   3.1106161e-15
       8674.6091   4.2061540e-15
       8676.8963   4.1606800e-15
       8679.1835   2.8800689e-15
       8681.4707   1.6723114e-15
       8683.7579   1.3403297e-15
       8686.0451   2.3656725e-15
       8688.3323   3.8716786e-15
       8690.6195   4.1325923e-15
       8692.9067   3.4586082e-15
       8695.1939   3.1204601e-15
       8697.4811   3.1427684e-15
       8699.7683   3.1378548e-15
       8702.0555   2.8955571e-15
       8704.3428   2.2835689e-15
       8706.6300   1.8353423e-15
       8708.9172   2.1013039e-15
       8711.2044   2.6386563e-15
       8713.4916   2.9247105e-15
       8715.7788   3.0288967e-15
       8718.0660   3.0637423e-15
       8720.3532   3.0215851e-15
       8722.6404   2.9100581e-15
       8724.9276   2.6820507e-15
       8727.2148   2.4423824e-15
       8729.5020   2.7435943e-15
       8731.7892   3.6397574e-15
       8734.0764   4.1808552e-15
       8736.3636   4.0023338e-15
       8738.6508   3.6944450e-15
       8740.9380   3.5177145e-15
       8743.2252   3.3209189e-15
       8745.5124   3.1560178e-15
       8747.7996   3.2554377e-15
       8750.0868   3.5024158e-15
       8752.3740   3.4871732e-15
       8754.6613   3.4793636e-15
       8756.9485   4.1644609e-15
       8759.2357   5.0059817e-15
       8761.5229   4.9345607e-15
       8763.8101   4.3440836e-15
       8766.0973   4.1360854e-15
       8768.3845   4.2631276e-15
       8770.6717   4.4144938e-15
       8772.9589   4.5672756e-15
       8775.2461   4.7127508e-15
       8777.5333   4.6155045e-15
       8779.8205   4.1037191e-15
       8782.1077   3.4191761e-15
       8784.3949   2.8306078e-15
       8786.6821   2.4551229e-15
       8788.9693   2.3251480e-15
       8791.2565   2.2099948e-15
       8793.5437   2.0426225e-15
       8795.8309   2.3254392e-15
       8798.1181   3.0776048e-15
       8800.4053   3.2914066e-15
       8802.6925   2.6964350e-15
       8804.9797   2.2126712e-15
       8807.2670   2.2060681e-15
       8809.5542   2.3733931e-15
       8811.8414   2.4744007e-15
       8814.1286   2.2340549e-15
       8816.4158   1.9640446e-15
       8818.7030   2.4933369e-15
       8820.9902   3.3035379e-15
       8823.2774   3.0939070e-15
       8825.5646   2.0058683e-15
       8827.8518   8.5237438e-16
       8830.1390   5.2310187e-16
       8832.4262   1.8104685e-15
       8834.7134   3.5003897e-15
       8837.0006   3.9150153e-15
       8839.2878   3.2732082e-15
       8841.5750   2.2806037e-15
       8843.8622   1.6838570e-15
       8846.1494   2.0141120e-15
       8848.4366   2.2797643e-15
       8850.7238   1.6656415e-15
       8853.0110   1.1844770e-15
       8855.2982   1.5396004e-15
       8857.5855   1.8536424e-15
       8859.8727   1.6063551e-15
       8862.1599   1.4097498e-15
       8864.4471   1.5793242e-15
       8866.7343   1.8106640e-15
       8869.0215   1.8758005e-15
       8871.3087   1.6270737e-15
       8873.5959   1.1904880e-15
       8875.8831   1.0466621e-15
       8878.1703   1.3836856e-15
       8880.4575   2.1008636e-15
       8882.7447   2.8568081e-15
       8885.0319   3.1347559e-15
       8887.3191   2.8219173e-15
       8889.6063   2.0670098e-15
       8891.8935   1.4426417e-15
       8894.1807   1.7006860e-15
       8896.4679   2.3807704e-15
       8898.7551   2.5721895e-15
       8901.0423   2.3756539e-15
       8903.3295   2.1889813e-15
       8905.6167   2.0696003e-15
       8907.9040   2.0111832e-15
       8910.1912   2.2054603e-15
       8912.4784   2.7200558e-15
       8914.7656   2.6896084e-15
       8917.0528   1.5491101e-15
       8919.3400   4.4390080e-16
       8921.6272   3.2590209e-16
       8923.9144   1.0121216e-15
       8926.2016   2.0611494e-15
       8928.4888   2.5357190e-15
       8930.7760   2.1022417e-15
       8933.0632   1.8299224e-15
       8935.3504   2.1096157e-15
       8937.6376   2.0998467e-15
       8939.9248   1.6729428e-15
       8942.2120   1.6026937e-15
       8944.4992   2.0349396e-15
       8946.7864   2.5332249e-15
       8949.0736   2.7718998e-15
       8951.3608   2.4717705e-15
       8953.6480   1.9230469e-15
       8955.9352   1.8111753e-15
       8958.2225   1.9643714e-15
       8960.5097   1.7723404e-15
       8962.7969   1.4968827e-15
       8965.0841   1.7059574e-15
       8967.3713   1.9004271e-15
       8969.6585   1.3652935e-15
       8971.9457   9.5221660e-16
       8974.2329   1.6375344e-15
       8976.5201   2.4124656e-15
       8978.8073   2.1784619e-15
       8981.0945   1.3018631e-15
       8983.3817   3.8238916e-16
       8985.6689   8.4422525e-17
       8987.9561   7.9611090e-16
       8990.2433   2.1107554e-15
       8992.5305   3.3301155e-15
       8994.8177   3.0090737e-15
       8997.1049   1.1123911e-15
       8999.3921   7.9892426e-16
       9001.6793   2.8313748e-15
       9003.9665   3.7444129e-15
       9006.2537   2.5116103e-15
       9008.5410   1.3323406e-15
       9010.8282   1.0609719e-15
       9013.1154   1.2812595e-15
       9015.4026   1.6627552e-15
       9017.6898   1.8280818e-15
       9019.9770   1.7216138e-15
       9022.2642   1.5397200e-15
       9024.5514   1.4165581e-15
       9026.8386   1.4564783e-15
       9029.1258   1.6046338e-15
       9031.4130   1.7324747e-15
       9033.7002   1.8184381e-15
       9035.9874   1.8762235e-15
       9038.2746   1.9144457e-15
       9040.5618   1.9419292e-15
       9042.8490   1.9910795e-15
       9045.1362   2.0728973e-15
       9047.4234   1.9607089e-15
       9049.7106   1.5354010e-15
       9051.9978   1.3533396e-15
       9054.2850   1.7442930e-15
       9056.5722   1.9951173e-15
       9058.8594   1.6905229e-15
       9061.1467   1.4444312e-15
       9063.4339   1.5584184e-15
       9065.7211   1.5759898e-15
       9068.0083   1.3307420e-15
       9070.2955   1.1373853e-15
       9072.5827   1.1598270e-15
       9074.8699   1.3594015e-15
       9077.1571   1.7124432e-15
       9079.4443   2.2705266e-15
       9081.7315   2.5903780e-15
       9084.0187   1.7590879e-15
       9086.3059   5.5779273e-16
       9088.5931   8.7299714e-16
       9090.8803   2.2203238e-15
       9093.1675   2.9260698e-15
       9095.4547   2.6231015e-15
       9097.7419   1.5007044e-15
       9100.0291   5.6306381e-16
       9102.3163   9.6463700e-16
       9104.6035   1.8147076e-15
       9106.8907   1.8611832e-15
       9109.1779   1.5200300e-15
       9111.4652   1.4323301e-15
       9113.7524   1.7648700e-15
       9116.0396   2.4831776e-15
       9118.3268   2.8336882e-15
       9120.6140   2.3165495e-15
       9122.9012   1.5819802e-15
       9125.1884   1.1960925e-15
       9127.4756   1.2561826e-15
       9129.7628   1.6569182e-15
       9132.0500   1.8830683e-15
       9134.3372   1.6915224e-15
       9136.6244   1.3194492e-15
       9138.9116   1.1023209e-15
       9141.1988   1.5842237e-15
       9143.4860   2.4737845e-15
       9145.7732   2.4611861e-15
       9148.0604   1.8306989e-15
       9150.3476   2.2905444e-15
       9152.6348   3.3965025e-15
       9154.9220   3.2644750e-15
       9157.2092   2.3246707e-15
       9159.4964   2.1961144e-15
       9161.7837   2.4327915e-15
       9164.0709   1.8317590e-15
       9166.3581   9.6267252e-16
       9168.6453   8.4619774e-16
       9170.9325   1.3578704e-15
       9173.2197   2.0771894e-15
       9175.5069   2.5037418e-15
       9177.7941   2.2634287e-15
       9180.0813   2.0647659e-15
       9182.3685   2.5058957e-15
       9184.6557   2.7083709e-15
       9186.9429   2.0769468e-15
       9189.2301   1.5792122e-15
       9191.5173   1.8558635e-15
       9193.8045   2.3842573e-15
       9196.0917   2.7212545e-15
       9198.3789   2.6799178e-15
       9200.6661   2.2836136e-15
       9202.9533   1.9610193e-15
       9205.2405   1.8779748e-15
       9207.5277   1.8179253e-15
       9209.8149   1.6350134e-15
       9212.1022   1.2126760e-15
       9214.3894   8.1453900e-16
       9216.6766   1.0491265e-15
       9218.9638   1.7928879e-15
       9221.2510   2.4189345e-15
       9223.5382   2.6862929e-15
       9225.8254   2.5888120e-15
       9228.1126   2.1584346e-15
       9230.3998   1.4788485e-15
       9232.6870   1.0649361e-15
       9234.9742   1.4773883e-15
       9237.2614   2.1423145e-15
       9239.5486   2.2804270e-15
       9241.8358   2.2266975e-15
       9244.1230   2.4351444e-15
       9246.4102   2.6210072e-15
       9248.6974   2.5083311e-15
       9250.9846   2.2885098e-15
       9253.2718   2.1493801e-15
       9255.5590   2.1193995e-15
       9257.8462   2.1668154e-15
       9260.1334   2.1003756e-15
       9262.4207   1.8501131e-15
       9264.7079   1.6383372e-15
       9266.9951   1.6088858e-15
       9269.2823   1.7687206e-15
       9271.5695   2.0129600e-15
       9273.8567   2.0652792e-15
       9276.1439   1.9011009e-15
       9278.4311   1.7815154e-15
       9280.7183   1.8087151e-15
       9283.0055   1.9932632e-15
       9285.2927   2.0751777e-15
       9287.5799   1.5374680e-15
       9289.8671   1.1411230e-15
       9292.1543   2.3076786e-15
       9294.4415   4.0284188e-15
       9296.7287   4.3621366e-15
       9299.0159   3.3294229e-15
       9301.3031   1.6570390e-15
       9303.5903   8.2975500e-16
       9305.8775   2.2034045e-15
       9308.1647   3.4258782e-15
       9310.4519   2.0680339e-15
       9312.7391   9.0947138e-16
       9315.0264   2.4612732e-15
       9317.3136   3.8938089e-15
       9319.6008   2.9293644e-15
       9321.8880   1.4205658e-15
       9324.1752   8.6782269e-16
       9326.4624   8.6712419e-16
       9328.7496   1.1335405e-15
       9331.0368   1.8282487e-15
       9333.3240   2.6960216e-15
       9335.6112   2.7147464e-15
       9337.8984   1.9635970e-15
       9340.1856   2.2497812e-15
       9342.4728   3.4596040e-15
       9344.7600   3.1757971e-15
       9347.0472   1.5523828e-15
       9349.3344   1.0411674e-15
       9351.6216   1.7008535e-15
       9353.9088   1.9696582e-15
       9356.1960   1.6839308e-15
       9358.4832   1.3760229e-15
       9360.7704   1.5047248e-15
       9363.0576   2.4950377e-15
       9365.3449   3.8003597e-15
       9367.6321   4.5510283e-15
       9369.9193   5.0203514e-15
       9372.2065   5.7023655e-15
       9374.4937   5.7576389e-15
       9376.7809   4.4128950e-15
       9379.0681   3.0121178e-15
       9381.3553   2.7900041e-15
       9383.6425   2.6414269e-15
       9385.9297   1.6888896e-15
       9388.2169   1.0033105e-15
       9390.5041   1.2890735e-15
       9392.7913   1.8650397e-15
       9395.0785   2.1692673e-15
       9397.3657   2.0299494e-15
       9399.6529   1.5075482e-15
       9401.9401   1.0446874e-15
       9404.2273   1.0699059e-15
       9406.5145   2.0108135e-15
       9408.8017   3.4805164e-15
       9411.0889   4.1384467e-15
       9413.3761   3.6769964e-15
       9415.6634   2.7602082e-15
       9417.9506   1.8284286e-15
       9420.2378   1.1409638e-15
       9422.5250   1.0509954e-15
       9424.8122   1.9591973e-15
       9427.0994   2.7456744e-15
       9429.3866   1.6635996e-15
       9431.6738   6.3440054e-16
       9433.9610   2.5613192e-15
       9436.2482   4.9552293e-15
       9438.5354   4.3598526e-15
       9440.8226   2.4444409e-15
       9443.1098   1.6049176e-15
       9445.3970   1.6129979e-15
       9447.6842   1.8732307e-15
       9449.9714   1.7008826e-15
       9452.2586   7.8230660e-16
       9454.5458   6.5543032e-16
       9456.8330   2.1502110e-15
       9459.1202   3.5291620e-15
       9461.4074   3.6494704e-15
       9463.6946   2.9276419e-15
       9465.9819   2.1640780e-15
       9468.2691   3.1714667e-15
       9470.5563   5.3149704e-15
       9472.8435   3.8630508e-15
       9475.1307  -7.6461463e-16
       9477.4179  -1.8664226e-15
       9479.7051   1.1665831e-15
       9481.9923   3.3085935e-15
       9484.2795   3.5764441e-15
       9486.5667   3.8081259e-15
       9488.8539   3.9885580e-15
       9491.1411   3.2214934e-15
       9493.4283   2.1853095e-15
       9495.7155   2.1732529e-15
       9498.0027   2.3269417e-15
       9500.2899   1.1580568e-15
       9502.5771  -8.2608902e-17
       9504.8643   3.3663195e-16
       9507.1515   1.1656045e-15
       9509.4387   8.4830435e-16
       9511.7259   4.7209168e-16
       9514.0131   1.1225536e-15
       9516.3003   1.4082058e-15
       9518.5876   4.2243739e-16
       9520.8748   4.6651713e-16
       9523.1620   2.7184967e-15
       9525.4492   4.1285649e-15
       9527.7364   3.0456224e-15
       9530.0236   1.6723194e-15
       9532.3108   1.3543509e-15
       9534.5980   1.6355556e-15
       9536.8852   2.1245941e-15
       9539.1724   2.4274347e-15
       9541.4596   2.4300001e-15
       9543.7468   2.4525207e-15
       9546.0340   2.5518110e-15
       9548.3212   2.5600568e-15
       9550.6084   2.3990360e-15
       9552.8956   1.9821014e-15
       9555.1828   1.8200984e-15
       9557.4700   2.8033741e-15
       9559.7572   3.8538893e-15
       9562.0444   3.0601199e-15
       9564.3316   1.6282740e-15
       9566.6188   1.7468222e-15
       9568.9061   2.6773960e-15
       9571.1933   2.9885646e-15
       9573.4805   2.8195536e-15
       9575.7677   2.5894960e-15
       9578.0549   2.6249564e-15
       9580.3421   3.0734497e-15
       9582.6293   2.8710152e-15
       9584.9165   1.3547936e-15
       9587.2037   2.9000680e-17
       9589.4909   2.0651622e-17
       9591.7781   7.3814074e-16
       9594.0653   1.5414881e-15
       9596.3525   1.9816288e-15
       9598.6397   1.7846943e-15
       9600.9269   9.2982839e-16
       9603.2141   7.4203626e-17
       9605.5013   1.0204195e-15
       9607.7885   3.4388328e-15
       9610.0757   4.2979933e-15
       9612.3629   3.1800081e-15
       9614.6501   2.1947805e-15
       9616.9373   1.9286634e-15
       9619.2246   1.8701234e-15
       9621.5118   1.9860724e-15
       9623.7990   2.4500012e-15
       9626.0862   2.7850693e-15
       9628.3734   2.2706948e-15
       9630.6606   1.4575067e-15
       9632.9478   1.3233093e-15
       9635.2350   1.4251774e-15
       9637.5222   1.0082546e-15
       9639.8094   7.8575452e-16
       9642.0966   1.5407238e-15
       9644.3838   2.2032100e-15
       9646.6710   1.7544861e-15
       9648.9582   1.0763557e-15
       9651.2454   1.0314664e-15
       9653.5326   1.3999461e-15
       9655.8198   1.9117458e-15
       9658.1070   2.4257888e-15
       9660.3942   2.8338574e-15
       9662.6814   3.1988908e-15
       9664.9686   3.4972025e-15
       9667.2558   3.4721463e-15
       9669.5431   3.1299478e-15
       9671.8303   2.9518711e-15
       9674.1175   2.8137100e-15
       9676.4047   1.7894489e-15
       9678.6919   1.2499205e-16
       9680.9791  -8.4752257e-16
       9683.2663  -5.3526673e-16
       9685.5535   1.0594877e-15
       9687.8407   3.2865575e-15
       9690.1279   5.1382082e-15
       9692.4151   5.6376185e-15
       9694.7023   3.9318216e-15
       9696.9895   1.8931369e-15
       9699.2767   2.2633365e-15
       9701.5639   3.2513674e-15
       9703.8511   2.0608799e-15
       9706.1383   5.5406811e-16
       9708.4255   1.1359056e-15
       9710.7127   2.4732358e-15
       9712.9999   2.9336728e-15
       9715.2871   2.5946085e-15
       9717.5743   1.8690230e-15
       9719.8616   1.8917353e-15
       9722.1488   3.1943293e-15
       9724.4360   3.9471795e-15
       9726.7232   3.1654087e-15
       9729.0104   2.4875303e-15
       9731.2976   2.6614319e-15
       9733.5848   2.4483756e-15
       9735.8720   1.4201192e-15
       9738.1592   4.2219647e-16
       9740.4464  -1.7920756e-16
       9742.7336  -6.5506485e-16
       9745.0208  -7.4262143e-16
       9747.3080   3.8854964e-16
       9749.5952   2.0276614e-15
       9751.8824   2.2609579e-15
       9754.1696   1.3244589e-15
       9756.4568   7.7953323e-16
       9758.7440   8.0676677e-16
       9761.0312   9.5881362e-16
       9763.3184   8.3564244e-16
       9765.6056   8.5375024e-17
       9767.8928  -7.2320746e-16
       9770.1800  -8.0972147e-16
       9772.4673   1.9970412e-16
       9774.7545   2.3449940e-15
       9777.0417   3.9344383e-15
       9779.3289   3.5250381e-15
       9781.6161   2.9347096e-15
       9783.9033   3.7858767e-15
       9786.1905   5.0404431e-15
       9788.4777   5.5591612e-15
       9790.7649   4.4300067e-15
       9793.0521   1.7287584e-15
       9795.3393   7.8652559e-17
       9797.6265   8.0230929e-16
       9799.9137   2.3275442e-15
       9802.2009   3.5544612e-15
       9804.4881   4.2795384e-15
       9806.7753   4.3864392e-15
       9809.0625   3.9647789e-15
       9811.3497   3.3305835e-15
       9813.6369   3.0217165e-15
       9815.9241   2.9215222e-15
       9818.2113   2.3545819e-15
       9820.4985   1.5518611e-15
       9822.7858   1.2772818e-15
       9825.0730   1.6524920e-15
       9827.3602   2.4685296e-15
       9829.6474   3.2029664e-15
       9831.9346   3.2464204e-15
       9834.2218   2.7314047e-15
       9836.5090   2.0667055e-15
       9838.7962   1.3402236e-15
       9841.0834   6.1624307e-16
       9843.3706   7.2642899e-16
       9845.6578   2.1875207e-15
       9847.9450   3.1276144e-15
       9850.2322   2.0319395e-15
       9852.5194   7.8049107e-17
       9854.8066  -1.3516888e-15
       9857.0938  -1.0393558e-15
       9859.3810   1.2303700e-15
       9861.6682   2.9880174e-15
       9863.9554   3.0315238e-15
       9866.2426   3.2358293e-15
       9868.5298   4.2658035e-15
       9870.8170   4.6836890e-15
       9873.1043   4.1453327e-15
       9875.3915   3.6463904e-15
       9877.6787   3.5526328e-15
       9879.9659   3.6105109e-15
       9882.2531   3.8008742e-15
       9884.5403   4.3017089e-15
       9886.8275   4.6231368e-15
       9889.1147   3.8261572e-15
       9891.4019   2.7867289e-15
       9893.6891   3.2780340e-15
       9895.9763   4.0902640e-15
       9898.2635   2.9815800e-15
       9900.5507   1.2278145e-15
       9902.8379   9.8096218e-16
       9905.1251   1.4752320e-15
       9907.4123   1.4414613e-15
       9909.6995   1.3706221e-15
       9911.9867   1.8803749e-15
       9914.2739   2.5268365e-15
       9916.5611   2.9500608e-15
       9918.8483   3.9042146e-15
       9921.1355   5.6884381e-15
       9923.4228   6.8814117e-15
       9925.7100   6.4290196e-15
       9927.9972   4.3009835e-15
       9930.2844   1.2815109e-15
       9932.5716  -3.0605513e-16
       9934.8588   5.0493275e-16
       9937.1460   2.3713064e-15
       9939.4332   4.0138942e-15
       9941.7204   4.3327473e-15
       9944.0076   3.1330852e-15
       9946.2948   1.1261998e-15
       9948.5820  -1.9388964e-16
       9950.8692   1.3970943e-15
       9953.1564   4.3621884e-15
       9955.4436   4.6606733e-15
       9957.7308   2.8757355e-15
       9960.0180   1.9004247e-15
       9962.3052   2.0767710e-15
       9964.5924   2.8513568e-15
       9966.8796   2.2729237e-15
       9969.1668  -1.6677595e-15
       9971.4540  -4.2489380e-15
       9973.7413  -3.0835690e-16
       9976.0285   5.1506178e-15
       9978.3157   6.3614958e-15
       9980.6029   5.1694909e-15
       9982.8901   4.0480615e-15
       9985.1773   3.3575821e-15
       9987.4645   3.0934161e-15
       9989.7517   1.9701422e-15
       9992.0389  -4.5975264e-16
       9994.3261  -2.1130075e-15
       9996.6133  -1.5064557e-15
       9998.9005   1.7015531e-15
